%OpenBCI Raw EEG Data
%Number of channels = 8
%Sample Rate = 250 Hz
%Board = OpenBCI_GUI$BoardCytonSerial
Sample Index, EXG Channel 0, EXG Channel 1, EXG Channel 2, EXG Channel 3, EXG Channel 4, EXG Channel 5, EXG Channel 6, EXG Channel 7, Accel Channel 0, Accel Channel 1, Accel Channel 2, Other, Other, Other, Other, Other, Other, Other, Analog Channel 0, Analog Channel 1, Analog Channel 2, Timestamp, Other, Timestamp (Formatted)
171.0, -187500.02235174447, 187500.0, 19864.867015465145, 17649.675029477483, 187500.0, 187500.0, -187500.02235174447, 33685.66586800407, 0.0, 0.0, 0.0, 192.0, 0.0, 0.0, 0.0, 0.0, 0.0, 0.0, 0.0, 0.0, 0.0, 1.6989585575677967E9, 0.0, 2023-11-02 16:55:57.567
172.0, -187500.02235174447, 187500.0, 19861.849529963678, 17642.030732873765, 187500.0, 187500.0, -187500.02235174447, 33682.268402846865, 0.0, 0.0, 0.0, 192.0, 0.0, 0.0, 0.0, 0.0, 0.0, 0.0, 0.0, 0.0, 0.0, 1.698958557567813E9, 0.0, 2023-11-02 16:55:57.567
173.0, -187500.02235174447, 187500.0, 19862.005992174865, 17638.812081672204, 187500.0, 187500.0, -187500.02235174447, 33680.7484842239, 0.0, 0.0, 0.0, 192.0, 0.0, 0.0, 0.0, 0.0, 0.0, 0.0, 0.0, 0.0, 0.0, 1.6989585575678227E9, 0.0, 2023-11-02 16:55:57.567
174.0, -187500.02235174447, 187500.0, 19864.55409104277, 17653.474826034882, 187500.0, 187500.0, -187500.02235174447, 33684.28005984784, 0.0, 0.0, 0.0, 192.0, 0.0, 0.0, 0.0, 0.0, 0.0, 0.0, 0.0, 0.0, 0.0, 1.6989585575678327E9, 0.0, 2023-11-02 16:55:57.567
175.0, -187500.02235174447, 187500.0, 19863.97294568693, 17665.276547107285, 187500.0, 187500.0, -187500.02235174447, 33685.95644068199, -0.098, 0.972, 0.10200000000000001, 192.0, 252.0, 240.0, 30.0, 96.0, 3.0, 48.0, 0.0, 0.0, 0.0, 1.6989585575678425E9, 0.0, 2023-11-02 16:55:57.567
176.0, -187500.02235174447, 187500.0, 19860.441370062992, 17656.49231153635, 187500.0, 187500.0, -187500.02235174447, 33682.49192029142, -0.098, 0.972, 0.10200000000000001, 192.0, 0.0, 0.0, 0.0, 0.0, 0.0, 0.0, 0.0, 0.0, 0.0, 1.6989585575678544E9, 0.0, 2023-11-02 16:55:57.567
177.0, -187500.02235174447, 187500.0, 19861.335439841205, 17659.554500526727, 187500.0, 187500.0, -187500.02235174447, 33684.1012458922, -0.098, 0.972, 0.10200000000000001, 192.0, 0.0, 0.0, 0.0, 0.0, 0.0, 0.0, 0.0, 0.0, 0.0, 1.6989585575678647E9, 0.0, 2023-11-02 16:55:57.567
178.0, -187500.02235174447, 187500.0, 19857.803864217265, 17665.79063722976, 187500.0, 187500.0, -187500.02235174447, 33682.827196458245, -0.098, 0.972, 0.10200000000000001, 192.0, 0.0, 0.0, 0.0, 0.0, 0.0, 0.0, 0.0, 0.0, 0.0, 1.6989585575678744E9, 0.0, 2023-11-02 16:55:57.567
179.0, -187500.02235174447, 187500.0, 19862.676544508522, 17673.300823366742, 187500.0, 187500.0, -187500.02235174447, 33686.76110348238, -0.098, 0.972, 0.10200000000000001, 192.0, 0.0, 0.0, 0.0, 0.0, 0.0, 0.0, 0.0, 0.0, 0.0, 1.6989585575678842E9, 0.0, 2023-11-02 16:55:57.567
180.0, -187500.02235174447, 187500.0, 19860.97781192992, 17674.150189656044, 187500.0, 187500.0, -187500.02235174447, 33682.42486505805, -0.098, 0.972, 0.10200000000000001, 192.0, 0.0, 0.0, 0.0, 0.0, 0.0, 0.0, 0.0, 0.0, 0.0, 1.6989585575678997E9, 0.0, 2023-11-02 16:55:57.567
181.0, -187500.02235174447, 187500.0, 19853.937012426497, 17663.041372661755, 187500.0, 187500.0, -187500.02235174447, 33673.439463787014, -0.098, 0.972, 0.10200000000000001, 192.0, 0.0, 0.0, 0.0, 0.0, 0.0, 0.0, 0.0, 0.0, 0.0, 1.6989585575679097E9, 0.0, 2023-11-02 16:55:57.567
182.0, -187500.02235174447, 187500.0, 19853.624088004122, 17666.21532037441, 187500.0, 187500.0, -187500.02235174447, 33669.43850152952, -0.098, 0.972, 0.10200000000000001, 192.0, 0.0, 0.0, 0.0, 0.0, 0.0, 0.0, 0.0, 0.0, 0.0, 1.6989585575679193E9, 0.0, 2023-11-02 16:55:57.567
183.0, -187500.02235174447, 187500.0, 19850.763064713843, 17672.250291377342, 187500.0, 187500.0, -187500.02235174447, 33666.08573986122, -0.098, 0.972, 0.10200000000000001, 192.0, 0.0, 0.0, 0.0, 0.0, 0.0, 0.0, 0.0, 0.0, 0.0, 1.698958557567929E9, 0.0, 2023-11-02 16:55:57.567
184.0, -187500.02235174447, 187500.0, 19853.109997881653, 17673.814913489212, 187500.0, 187500.0, -187500.02235174447, 33668.05269337329, -0.098, 0.972, 0.10200000000000001, 192.0, 0.0, 0.0, 0.0, 0.0, 0.0, 0.0, 0.0, 0.0, 0.0, 1.6989585575679388E9, 0.0, 2023-11-02 16:55:57.567
185.0, -187500.02235174447, 187500.0, 19852.059465892253, 17670.529207054282, 187500.0, 187500.0, -187500.02235174447, 33667.2480305729, -0.094, 0.976, 0.10200000000000001, 192.0, 253.0, 16.0, 30.0, 128.0, 3.0, 48.0, 0.0, 0.0, 0.0, 1.6989585575679493E9, 0.0, 2023-11-02 16:55:57.567
186.0, -187500.02235174447, 187500.0, 19848.326724568215, 17668.808122731225, 187500.0, 187500.0, -187500.02235174447, 33665.16931833855, -0.094, 0.976, 0.10200000000000001, 192.0, 0.0, 0.0, 0.0, 0.0, 0.0, 0.0, 0.0, 0.0, 0.0, 1.69895855756796E9, 0.0, 2023-11-02 16:55:57.567
187.0, -187500.02235174447, 187500.0, 19845.175128600018, 17669.456323320428, 187500.0, 187500.0, -187500.02235174447, 33662.91179214857, -0.094, 0.976, 0.10200000000000001, 192.0, 0.0, 0.0, 0.0, 0.0, 0.0, 0.0, 0.0, 0.0, 0.0, 1.698958557568076E9, 0.0, 2023-11-02 16:55:57.568
188.0, -187500.02235174447, 187500.0, 19849.645477491078, 17674.150189656044, 187500.0, 187500.0, -187500.02235174447, 33667.873879417646, -0.094, 0.976, 0.10200000000000001, 192.0, 0.0, 0.0, 0.0, 0.0, 0.0, 0.0, 0.0, 0.0, 0.0, 1.6989585575680864E9, 0.0, 2023-11-02 16:55:57.568
189.0, -187500.02235174447, 187500.0, 19847.343247812183, 17677.190026901964, 187500.0, 187500.0, -187500.02235174447, 33666.1974985835, -0.094, 0.976, 0.10200000000000001, 192.0, 0.0, 0.0, 0.0, 0.0, 0.0, 0.0, 0.0, 0.0, 0.0, 1.6989585575680964E9, 0.0, 2023-11-02 16:55:57.568
190.0, -187500.02235174447, 187500.0, 19848.036151890297, 17675.535997812272, 187500.0, 187500.0, -187500.02235174447, 33667.0468648728, -0.094, 0.976, 0.10200000000000001, 192.0, 0.0, 0.0, 0.0, 0.0, 0.0, 0.0, 0.0, 0.0, 0.0, 1.698958557568106E9, 0.0, 2023-11-02 16:55:57.568
191.0, -187500.02235174447, 187500.0, 19849.7348844689, 17677.570006557704, 187500.0, 187500.0, -187500.02235174447, 33668.43267302903, -0.094, 0.976, 0.10200000000000001, 192.0, 0.0, 0.0, 0.0, 0.0, 0.0, 0.0, 0.0, 0.0, 0.0, 1.6989585575681157E9, 0.0, 2023-11-02 16:55:57.568
192.0, -187500.02235174447, 187500.0, 19858.83204446221, 17685.013137461323, 187500.0, 187500.0, -187500.02235174447, 33675.87580393264, -0.094, 0.976, 0.10200000000000001, 192.0, 0.0, 0.0, 0.0, 0.0, 0.0, 0.0, 0.0, 0.0, 0.0, 1.698958557568127E9, 0.0, 2023-11-02 16:55:57.568
193.0, -187500.02235174447, 187500.0, 19866.20812013246, 17683.44851534945, 187500.0, 187500.0, -187500.02235174447, 33680.50261503489, -0.094, 0.976, 0.10200000000000001, 192.0, 0.0, 0.0, 0.0, 0.0, 0.0, 0.0, 0.0, 0.0, 0.0, 1.6989585575681393E9, 0.0, 2023-11-02 16:55:57.568
194.0, -187500.02235174447, 187500.0, 19864.419980576036, 17682.129762426586, 187500.0, 187500.0, -187500.02235174447, 33677.865109189166, -0.094, 0.976, 0.10200000000000001, 192.0, 0.0, 0.0, 0.0, 0.0, 0.0, 0.0, 0.0, 0.0, 0.0, 1.698958557568149E9, 0.0, 2023-11-02 16:55:57.568
195.0, -187500.02235174447, 187500.0, 19862.162454386053, 17685.393117117063, 187500.0, 187500.0, -187500.02235174447, 33676.546356266306, -0.098, 0.976, 0.10200000000000001, 192.0, 252.0, 240.0, 30.0, 128.0, 3.0, 48.0, 0.0, 0.0, 0.0, 1.698958557568159E9, 0.0, 2023-11-02 16:55:57.568
196.0, -187500.02235174447, 187500.0, 19859.770817729335, 17689.617596819116, 187500.0, 187500.0, -187500.02235174447, 33676.43459754403, -0.098, 0.976, 0.10200000000000001, 192.0, 0.0, 0.0, 0.0, 0.0, 0.0, 0.0, 0.0, 0.0, 0.0, 1.6989585575681744E9, 0.0, 2023-11-02 16:55:57.568
197.0, -187500.02235174447, 187500.0, 19868.64446027809, 17687.40477411804, 187500.0, 187500.0, -187500.02235174447, 33686.15760638209, -0.098, 0.976, 0.10200000000000001, 192.0, 0.0, 0.0, 0.0, 0.0, 0.0, 0.0, 0.0, 0.0, 0.0, 1.6989585575681844E9, 0.0, 2023-11-02 16:55:57.568
198.0, -187500.02235174447, 187500.0, 19865.626974776624, 17688.276492151796, 187500.0, 187500.0, -187500.02235174447, 33685.64351625962, -0.098, 0.976, 0.10200000000000001, 192.0, 0.0, 0.0, 0.0, 0.0, 0.0, 0.0, 0.0, 0.0, 0.0, 1.6989585575681944E9, 0.0, 2023-11-02 16:55:57.568
199.0, -187500.02235174447, 187500.0, 19862.140102641595, 17690.042279963767, 187500.0, 187500.0, -187500.02235174447, 33683.47539704745, -0.098, 0.976, 0.10200000000000001, 192.0, 0.0, 0.0, 0.0, 0.0, 0.0, 0.0, 0.0, 0.0, 0.0, 1.698958557568204E9, 0.0, 2023-11-02 16:55:57.568
200.0, -187500.02235174447, 187500.0, 19860.933108441008, 17693.037413720776, 187500.0, 187500.0, -187500.02235174447, 33682.24605110241, -0.098, 0.976, 0.10200000000000001, 192.0, 0.0, 0.0, 0.0, 0.0, 0.0, 0.0, 0.0, 0.0, 0.0, 1.6989585575682175E9, 0.0, 2023-11-02 16:55:57.568
201.0, -187500.02235174447, 187500.0, 19858.876747951123, 17687.382422373586, 187500.0, 187500.0, -187500.02235174447, 33678.89328943411, -0.098, 0.976, 0.10200000000000001, 192.0, 0.0, 0.0, 0.0, 0.0, 0.0, 0.0, 0.0, 0.0, 0.0, 1.6989585575682287E9, 0.0, 2023-11-02 16:55:57.568
202.0, -187500.02235174447, 187500.0, 19864.12940789812, 17680.274567636796, 187500.0, 187500.0, -187500.02235174447, 33681.75431272439, -0.098, 0.976, 0.10200000000000001, 192.0, 0.0, 0.0, 0.0, 0.0, 0.0, 0.0, 0.0, 0.0, 0.0, 1.6989585575682676E9, 0.0, 2023-11-02 16:55:57.568
203.0, -187500.02235174447, 187500.0, 19868.733867255913, 17679.35814611413, 187500.0, 187500.0, -187500.02235174447, 33684.1012458922, -0.098, 0.976, 0.10200000000000001, 192.0, 0.0, 0.0, 0.0, 0.0, 0.0, 0.0, 0.0, 0.0, 0.0, 1.6989585575682788E9, 0.0, 2023-11-02 16:55:57.568
204.0, -187500.02235174447, 187500.0, 19868.0409631778, 17685.1248961836, 187500.0, 187500.0, -187500.02235174447, 33683.20717611399, -0.098, 0.976, 0.10200000000000001, 192.0, 0.0, 0.0, 0.0, 0.0, 0.0, 0.0, 0.0, 0.0, 0.0, 1.6989585575682895E9, 0.0, 2023-11-02 16:55:57.568
205.0, -187500.02235174447, 187500.0, 19863.212986375453, 17681.41450660402, 187500.0, 187500.0, -187500.02235174447, 33681.03905690182, -0.094, 0.976, 0.106, 192.0, 253.0, 16.0, 30.0, 128.0, 3.0, 80.0, 0.0, 0.0, 0.0, 1.6989585575683005E9, 0.0, 2023-11-02 16:55:57.568
206.0, -187500.02235174447, 187500.0, 19866.923375955033, 17672.384401844072, 187500.0, 187500.0, -187500.02235174447, 33684.503577292395, -0.094, 0.976, 0.106, 192.0, 0.0, 0.0, 0.0, 0.0, 0.0, 0.0, 0.0, 0.0, 0.0, 1.698958557568312E9, 0.0, 2023-11-02 16:55:57.568
207.0, -187500.02235174447, 187500.0, 19863.12357939763, 17675.11131466762, 187500.0, 187500.0, -187500.02235174447, 33681.508443535386, -0.094, 0.976, 0.106, 192.0, 0.0, 0.0, 0.0, 0.0, 0.0, 0.0, 0.0, 0.0, 0.0, 1.6989585575683234E9, 0.0, 2023-11-02 16:55:57.568
208.0, -187500.02235174447, 187500.0, 19865.336402098706, 17685.72839328389, 187500.0, 187500.0, -187500.02235174447, 33683.0507139028, -0.094, 0.976, 0.106, 192.0, 0.0, 0.0, 0.0, 0.0, 0.0, 0.0, 0.0, 0.0, 0.0, 1.698958557568334E9, 0.0, 2023-11-02 16:55:57.568
209.0, -187500.02235174447, 187500.0, 19869.963213200954, 17694.15500094354, 187500.0, 187500.0, -187500.02235174447, 33685.66586800407, -0.094, 0.976, 0.106, 192.0, 0.0, 0.0, 0.0, 0.0, 0.0, 0.0, 0.0, 0.0, 0.0, 1.6989585575683453E9, 0.0, 2023-11-02 16:55:57.568
210.0, -187500.02235174447, 187500.0, 19866.722210254935, 17689.416431119018, 187500.0, 187500.0, -187500.02235174447, 33682.38016156914, -0.094, 0.976, 0.106, 192.0, 0.0, 0.0, 0.0, 0.0, 0.0, 0.0, 0.0, 0.0, 0.0, 1.6989585575683565E9, 0.0, 2023-11-02 16:55:57.568
211.0, -187500.02235174447, 187500.0, 19864.73290499841, 17685.996614217354, 187500.0, 187500.0, -187500.02235174447, 33679.92146967906, -0.094, 0.976, 0.106, 192.0, 0.0, 0.0, 0.0, 0.0, 0.0, 0.0, 0.0, 0.0, 0.0, 1.6989585575683672E9, 0.0, 2023-11-02 16:55:57.568
212.0, -187500.02235174447, 187500.0, 19860.106093896164, 17692.83624802068, 187500.0, 187500.0, -187500.02235174447, 33673.886498676125, -0.094, 0.976, 0.106, 192.0, 0.0, 0.0, 0.0, 0.0, 0.0, 0.0, 0.0, 0.0, 0.0, 1.698958557568378E9, 0.0, 2023-11-02 16:55:57.568
213.0, -187500.02235174447, 187500.0, 19857.06625665024, 17693.35033814315, 187500.0, 187500.0, -187500.02235174447, 33670.578440496734, -0.094, 0.976, 0.106, 192.0, 0.0, 0.0, 0.0, 0.0, 0.0, 0.0, 0.0, 0.0, 0.0, 1.6989585575683892E9, 0.0, 2023-11-02 16:55:57.568
214.0, -187500.02235174447, 187500.0, 19855.45693104946, 17684.25317814984, 187500.0, 187500.0, -187500.02235174447, 33669.393798040604, -0.094, 0.976, 0.106, 192.0, 0.0, 0.0, 0.0, 0.0, 0.0, 0.0, 0.0, 0.0, 0.0, 1.698958557568401E9, 0.0, 2023-11-02 16:55:57.568
215.0, -187500.02235174447, 187500.0, 19856.619221761135, 17682.59914906015, 187500.0, 187500.0, -187500.02235174447, 33670.578440496734, -0.096, 0.98, 0.108, 192.0, 253.0, 0.0, 30.0, 160.0, 3.0, 96.0, 0.0, 0.0, 0.0, 1.6989585575684123E9, 0.0, 2023-11-02 16:55:57.568
216.0, -187500.02235174447, 187500.0, 19854.7863787158, 17690.824591019704, 187500.0, 187500.0, -187500.02235174447, 33667.33743755072, -0.096, 0.98, 0.108, 192.0, 0.0, 0.0, 0.0, 0.0, 0.0, 0.0, 0.0, 0.0, 0.0, 1.6989585575684235E9, 0.0, 2023-11-02 16:55:57.568
217.0, -187500.02235174447, 187500.0, 19852.8864804371, 17688.25414040734, 187500.0, 187500.0, -187500.02235174447, 33665.28107706083, -0.096, 0.98, 0.108, 192.0, 0.0, 0.0, 0.0, 0.0, 0.0, 0.0, 0.0, 0.0, 0.0, 1.6989585575684433E9, 0.0, 2023-11-02 16:55:57.568
218.0, -187500.02235174447, 187500.0, 19856.865090950145, 17684.052012449745, 187500.0, 187500.0, -187500.02235174447, 33668.835004429224, -0.096, 0.98, 0.108, 192.0, 0.0, 0.0, 0.0, 0.0, 0.0, 0.0, 0.0, 0.0, 0.0, 1.6989585575684545E9, 0.0, 2023-11-02 16:55:57.568
219.0, -187500.02235174447, 187500.0, 19860.441370062992, 17681.861541493123, 187500.0, 187500.0, -187500.02235174447, 33671.31604806376, -0.096, 0.98, 0.108, 192.0, 0.0, 0.0, 0.0, 0.0, 0.0, 0.0, 0.0, 0.0, 0.0, 1.6989585575684655E9, 0.0, 2023-11-02 16:55:57.568
220.0, -187500.02235174447, 187500.0, 19860.240204362894, 17683.761439771824, 187500.0, 187500.0, -187500.02235174447, 33670.869013174655, -0.096, 0.98, 0.108, 192.0, 0.0, 0.0, 0.0, 0.0, 0.0, 0.0, 0.0, 0.0, 0.0, 1.698958557568476E9, 0.0, 2023-11-02 16:55:57.568
221.0, -187500.02235174447, 187500.0, 19860.329611340716, 17688.83528576318, 187500.0, 187500.0, -187500.02235174447, 33670.8466614302, -0.096, 0.98, 0.108, 192.0, 0.0, 0.0, 0.0, 0.0, 0.0, 0.0, 0.0, 0.0, 0.0, 1.6989585575684867E9, 0.0, 2023-11-02 16:55:57.568
222.0, -187500.02235174447, 187500.0, 19856.909794439056, 17686.242483406364, 187500.0, 187500.0, -187500.02235174447, 33668.5444317513, -0.096, 0.98, 0.108, 192.0, 0.0, 0.0, 0.0, 0.0, 0.0, 0.0, 0.0, 0.0, 0.0, 1.698958557568498E9, 0.0, 2023-11-02 16:55:57.568
223.0, -187500.02235174447, 187500.0, 19856.820387461234, 17682.129762426586, 187500.0, 187500.0, -187500.02235174447, 33670.176109096545, -0.096, 0.98, 0.108, 192.0, 0.0, 0.0, 0.0, 0.0, 0.0, 0.0, 0.0, 0.0, 0.0, 1.6989585575685089E9, 0.0, 2023-11-02 16:55:57.568
224.0, -187500.02235174447, 187500.0, 19852.104169381164, 17686.443649106463, 187500.0, 187500.0, -187500.02235174447, 33667.96328639547, -0.096, 0.98, 0.108, 192.0, 0.0, 0.0, 0.0, 0.0, 0.0, 0.0, 0.0, 0.0, 0.0, 1.6989585575685196E9, 0.0, 2023-11-02 16:55:57.568
225.0, -187500.02235174447, 187500.0, 19847.477358278913, 17687.248311906853, 187500.0, 187500.0, -187500.02235174447, 33663.71645494896, -0.10400000000000001, 0.97, 0.10400000000000001, 192.0, 252.0, 192.0, 30.0, 80.0, 3.0, 64.0, 0.0, 0.0, 0.0, 1.6989585575685308E9, 0.0, 2023-11-02 16:55:57.568
226.0, -187500.02235174447, 187500.0, 19846.40447454506, 17683.090887438168, 187500.0, 187500.0, -187500.02235174447, 33661.70479794798, -0.10400000000000001, 0.97, 0.10400000000000001, 192.0, 0.0, 0.0, 0.0, 0.0, 0.0, 0.0, 0.0, 0.0, 0.0, 1.698958557568542E9, 0.0, 2023-11-02 16:55:57.568
227.0, -187500.02235174447, 187500.0, 19851.187747858497, 17680.565140314717, 187500.0, 187500.0, -187500.02235174447, 33664.40935902707, -0.10400000000000001, 0.97, 0.10400000000000001, 192.0, 0.0, 0.0, 0.0, 0.0, 0.0, 0.0, 0.0, 0.0, 0.0, 1.698958557568553E9, 0.0, 2023-11-02 16:55:57.568
228.0, -187500.02235174447, 187500.0, 19847.343247812183, 17678.97816645839, 187500.0, 187500.0, -187500.02235174447, 33657.50266999038, -0.10400000000000001, 0.97, 0.10400000000000001, 192.0, 0.0, 0.0, 0.0, 0.0, 0.0, 0.0, 0.0, 0.0, 0.0, 1.6989585575685637E9, 0.0, 2023-11-02 16:55:57.568
229.0, -187500.02235174447, 187500.0, 19847.477358278913, 17689.148210185554, 187500.0, 187500.0, -187500.02235174447, 33657.033283356825, -0.10400000000000001, 0.97, 0.10400000000000001, 192.0, 0.0, 0.0, 0.0, 0.0, 0.0, 0.0, 0.0, 0.0, 0.0, 1.6989585575685747E9, 0.0, 2023-11-02 16:55:57.568
230.0, -187500.02235174447, 187500.0, 19853.735846726402, 17696.65839632254, 187500.0, 187500.0, -187500.02235174447, 33663.42588227104, -0.10400000000000001, 0.97, 0.10400000000000001, 192.0, 0.0, 0.0, 0.0, 0.0, 0.0, 0.0, 0.0, 0.0, 0.0, 1.6989585575685856E9, 0.0, 2023-11-02 16:55:57.568
231.0, -187500.02235174447, 187500.0, 19858.630878762113, 17697.21718993392, 187500.0, 187500.0, -187500.02235174447, 33670.243164329906, -0.10400000000000001, 0.97, 0.10400000000000001, 192.0, 0.0, 0.0, 0.0, 0.0, 0.0, 0.0, 0.0, 0.0, 0.0, 1.698958557568597E9, 0.0, 2023-11-02 16:55:57.568
232.0, -187500.02235174447, 187500.0, 19854.853433949167, 17703.27451268131, 187500.0, 187500.0, -187500.02235174447, 33667.583306739725, -0.10400000000000001, 0.97, 0.10400000000000001, 192.0, 0.0, 0.0, 0.0, 0.0, 0.0, 0.0, 0.0, 0.0, 0.0, 1.6989585575686283E9, 0.0, 2023-11-02 16:55:57.568
233.0, -187500.02235174447, 187500.0, 19849.77958795781, 17708.817745306224, 187500.0, 187500.0, -187500.02235174447, 33662.86708865966, -0.10400000000000001, 0.97, 0.10400000000000001, 192.0, 0.0, 0.0, 0.0, 0.0, 0.0, 0.0, 0.0, 0.0, 0.0, 1.6989585575686395E9, 0.0, 2023-11-02 16:55:57.568
234.0, -187500.02235174447, 187500.0, 19853.69114323749, 17708.9295040285, 187500.0, 187500.0, -187500.02235174447, 33667.0468648728, -0.10400000000000001, 0.97, 0.10400000000000001, 192.0, 0.0, 0.0, 0.0, 0.0, 0.0, 0.0, 0.0, 0.0, 0.0, 1.69895855756865E9, 0.0, 2023-11-02 16:55:57.568
235.0, -187500.02235174447, 187500.0, 19862.65419276407, 17707.342530172173, 187500.0, 187500.0, -187500.02235174447, 33676.52400452185, -0.10200000000000001, 0.97, 0.10400000000000001, 192.0, 252.0, 208.0, 30.0, 80.0, 3.0, 64.0, 0.0, 0.0, 0.0, 1.698958557568662E9, 0.0, 2023-11-02 16:55:57.568
236.0, -187500.02235174447, 187500.0, 19861.514253796846, 17711.45525115195, 187500.0, 187500.0, -187500.02235174447, 33675.45112078799, -0.10200000000000001, 0.97, 0.10400000000000001, 192.0, 0.0, 0.0, 0.0, 0.0, 0.0, 0.0, 0.0, 0.0, 0.0, 1.698958557568673E9, 0.0, 2023-11-02 16:55:57.568
237.0, -187500.02235174447, 187500.0, 19858.429713062014, 17705.822611549214, 187500.0, 187500.0, -187500.02235174447, 33668.90205966259, -0.10200000000000001, 0.97, 0.10400000000000001, 192.0, 0.0, 0.0, 0.0, 0.0, 0.0, 0.0, 0.0, 0.0, 0.0, 1.6989585575686836E9, 0.0, 2023-11-02 16:55:57.568
238.0, -187500.02235174447, 187500.0, 19858.206195617462, 17705.353224915652, 187500.0, 187500.0, -187500.02235174447, 33666.77864393934, -0.10200000000000001, 0.97, 0.10400000000000001, 192.0, 0.0, 0.0, 0.0, 0.0, 0.0, 0.0, 0.0, 0.0, 0.0, 1.6989585575686944E9, 0.0, 2023-11-02 16:55:57.568
239.0, -187500.02235174447, 187500.0, 19856.485111294405, 17693.21622767642, 187500.0, 187500.0, -187500.02235174447, 33664.20819332697, -0.10200000000000001, 0.97, 0.10400000000000001, 192.0, 0.0, 0.0, 0.0, 0.0, 0.0, 0.0, 0.0, 0.0, 0.0, 1.6989585575687056E9, 0.0, 2023-11-02 16:55:57.568
240.0, -187500.02235174447, 187500.0, 19856.30629733876, 17686.98009097339, 187500.0, 187500.0, -187500.02235174447, 33664.230545071434, -0.10200000000000001, 0.97, 0.10400000000000001, 192.0, 0.0, 0.0, 0.0, 0.0, 0.0, 0.0, 0.0, 0.0, 0.0, 1.6989585575687194E9, 0.0, 2023-11-02 16:55:57.568
241.0, -187500.02235174447, 187500.0, 19853.02059090383, 17697.284245167284, 187500.0, 187500.0, -187500.02235174447, 33663.47058575995, -0.10200000000000001, 0.97, 0.10400000000000001, 192.0, 0.0, 0.0, 0.0, 0.0, 0.0, 0.0, 0.0, 0.0, 0.0, 1.6989585575687304E9, 0.0, 2023-11-02 16:55:57.568
242.0, -187500.02235174447, 187500.0, 19849.77958795781, 17700.99463474687, 187500.0, 187500.0, -187500.02235174447, 33660.69896944749, -0.10200000000000001, 0.97, 0.10400000000000001, 192.0, 0.0, 0.0, 0.0, 0.0, 0.0, 0.0, 0.0, 0.0, 0.0, 1.6989585575687413E9, 0.0, 2023-11-02 16:55:57.568
243.0, -187500.02235174447, 187500.0, 19851.232451347405, 17691.74101254237, 187500.0, 187500.0, -187500.02235174447, 33662.66592295956, -0.10200000000000001, 0.97, 0.10400000000000001, 192.0, 0.0, 0.0, 0.0, 0.0, 0.0, 0.0, 0.0, 0.0, 0.0, 1.6989585575687523E9, 0.0, 2023-11-02 16:55:57.568
244.0, -187500.02235174447, 187500.0, 19857.5356432838, 17691.718660797913, 187500.0, 187500.0, -187500.02235174447, 33668.969114895954, -0.10200000000000001, 0.97, 0.10400000000000001, 192.0, 0.0, 0.0, 0.0, 0.0, 0.0, 0.0, 0.0, 0.0, 0.0, 1.6989585575687623E9, 0.0, 2023-11-02 16:55:57.568
245.0, -187500.02235174447, 187500.0, 19854.384047315605, 17700.480544624395, 187500.0, 187500.0, -187500.02235174447, 33667.06921661725, -0.10200000000000001, 0.976, 0.108, 192.0, 252.0, 208.0, 30.0, 128.0, 3.0, 96.0, 0.0, 0.0, 0.0, 1.6989585575687728E9, 0.0, 2023-11-02 16:55:57.568
246.0, -187500.02235174447, 187500.0, 19853.042942648288, 17704.03447199279, 187500.0, 187500.0, -187500.02235174447, 33666.42101602805, -0.10200000000000001, 0.976, 0.108, 192.0, 0.0, 0.0, 0.0, 0.0, 0.0, 0.0, 0.0, 0.0, 0.0, 1.6989585575687845E9, 0.0, 2023-11-02 16:55:57.568
247.0, -187500.02235174447, 187500.0, 19849.533718768802, 17698.379480645595, 187500.0, 187500.0, -187500.02235174447, 33664.61052472717, -0.10200000000000001, 0.976, 0.108, 192.0, 0.0, 0.0, 0.0, 0.0, 0.0, 0.0, 0.0, 0.0, 0.0, 1.698958557568804E9, 0.0, 2023-11-02 16:55:57.568
248.0, -187500.02235174447, 187500.0, 19849.287849579796, 17697.172486445008, 187500.0, 187500.0, -187500.02235174447, 33665.61635322766, -0.10200000000000001, 0.976, 0.108, 192.0, 0.0, 0.0, 0.0, 0.0, 0.0, 0.0, 0.0, 0.0, 0.0, 1.6989585575688152E9, 0.0, 2023-11-02 16:55:57.568
249.0, -187500.02235174447, 187500.0, 19845.286887322294, 17703.632140592592, 187500.0, 187500.0, -187500.02235174447, 33662.37535028164, -0.10200000000000001, 0.976, 0.108, 192.0, 0.0, 0.0, 0.0, 0.0, 0.0, 0.0, 0.0, 0.0, 0.0, 1.6989585575688264E9, 0.0, 2023-11-02 16:55:57.568
250.0, -187500.02235174447, 187500.0, 19843.297582065774, 17708.54952437276, 187500.0, 187500.0, -187500.02235174447, 33659.894306647104, -0.10200000000000001, 0.976, 0.108, 192.0, 0.0, 0.0, 0.0, 0.0, 0.0, 0.0, 0.0, 0.0, 0.0, 1.6989585575688374E9, 0.0, 2023-11-02 16:55:57.568
251.0, -187500.02235174447, 187500.0, 19838.000218629866, 17700.033509735287, 187500.0, 187500.0, -187500.02235174447, 33652.78645191032, -0.10200000000000001, 0.976, 0.108, 192.0, 0.0, 0.0, 0.0, 0.0, 0.0, 0.0, 0.0, 0.0, 0.0, 1.6989585575688484E9, 0.0, 2023-11-02 16:55:57.568
252.0, -187500.02235174447, 187500.0, 19838.044922118774, 17691.718660797913, 187500.0, 187500.0, -187500.02235174447, 33653.07702458823, -0.10200000000000001, 0.976, 0.108, 192.0, 0.0, 0.0, 0.0, 0.0, 0.0, 0.0, 0.0, 0.0, 0.0, 1.6989585575688596E9, 0.0, 2023-11-02 16:55:57.568
253.0, -187500.02235174447, 187500.0, 19838.380198285606, 17698.088907967678, 187500.0, 187500.0, -187500.02235174447, 33651.780623409824, -0.10200000000000001, 0.976, 0.108, 192.0, 0.0, 0.0, 0.0, 0.0, 0.0, 0.0, 0.0, 0.0, 0.0, 1.6989585575688708E9, 0.0, 2023-11-02 16:55:57.568
254.0, -187500.02235174447, 187500.0, 19837.799052929768, 17707.40958540554, 187500.0, 187500.0, -187500.02235174447, 33649.00900709737, -0.10200000000000001, 0.976, 0.108, 192.0, 0.0, 0.0, 0.0, 0.0, 0.0, 0.0, 0.0, 0.0, 0.0, 1.6989585575688815E9, 0.0, 2023-11-02 16:55:57.568
255.0, -187500.02235174447, 187500.0, 19837.82140467422, 17705.08500398219, 187500.0, 187500.0, -187500.02235174447, 33649.18782105301, -0.092, 0.97, 0.106, 192.0, 253.0, 32.0, 30.0, 80.0, 3.0, 80.0, 0.0, 0.0, 0.0, 1.6989585575688932E9, 0.0, 2023-11-02 16:55:57.568
0.0, -187500.02235174447, 187500.0, 19841.50944250935, 17702.112221969634, 187500.0, 187500.0, -187500.02235174447, 33653.881687388624, -0.092, 0.97, 0.106, 192.0, 0.0, 0.0, 0.0, 0.0, 0.0, 0.0, 0.0, 0.0, 0.0, 1.6989585575689056E9, 0.0, 2023-11-02 16:55:57.568
1.0, -187500.02235174447, 187500.0, 19837.77670118531, 17707.54369587227, 187500.0, 187500.0, -187500.02235174447, 33651.73591992092, -0.092, 0.97, 0.106, 192.0, 0.0, 0.0, 0.0, 0.0, 0.0, 0.0, 0.0, 0.0, 0.0, 1.6989585575689187E9, 0.0, 2023-11-02 16:55:57.568
2.0, -187500.02235174447, 187500.0, 19832.948724382964, 17711.343492429674, 187500.0, 187500.0, -187500.02235174447, 33647.48908847441, -0.092, 0.97, 0.106, 192.0, 0.0, 0.0, 0.0, 0.0, 0.0, 0.0, 0.0, 0.0, 0.0, 1.69895855756893E9, 0.0, 2023-11-02 16:55:57.568
3.0, -187500.02235174447, 187500.0, 19836.010913373342, 17717.93725704399, 187500.0, 187500.0, -187500.02235174447, 33650.37246350914, -0.092, 0.97, 0.106, 192.0, 0.0, 0.0, 0.0, 0.0, 0.0, 0.0, 0.0, 0.0, 0.0, 1.6989585575689416E9, 0.0, 2023-11-02 16:55:57.568
4.0, -187500.02235174447, 187500.0, 19831.987599371387, 17712.88576279709, 187500.0, 187500.0, -187500.02235174447, 33646.59501869619, -0.092, 0.97, 0.106, 192.0, 0.0, 0.0, 0.0, 0.0, 0.0, 0.0, 0.0, 0.0, 0.0, 1.6989585575689533E9, 0.0, 2023-11-02 16:55:57.568
5.0, -187500.02235174447, 187500.0, 19828.76894816982, 17712.438727907986, 187500.0, 187500.0, -187500.02235174447, 33642.70581516097, -0.092, 0.97, 0.106, 192.0, 0.0, 0.0, 0.0, 0.0, 0.0, 0.0, 0.0, 0.0, 0.0, 1.6989585575689652E9, 0.0, 2023-11-02 16:55:57.568
6.0, -187500.02235174447, 187500.0, 19830.557087726247, 17720.664169867538, 187500.0, 187500.0, -187500.02235174447, 33645.9915215959, -0.092, 0.97, 0.106, 192.0, 0.0, 0.0, 0.0, 0.0, 0.0, 0.0, 0.0, 0.0, 0.0, 1.698958557568977E9, 0.0, 2023-11-02 16:55:57.568
7.0, -187500.02235174447, 187500.0, 19833.820442416723, 17726.90030657057, 187500.0, 187500.0, -187500.02235174447, 33651.60180945418, -0.092, 0.97, 0.106, 192.0, 0.0, 0.0, 0.0, 0.0, 0.0, 0.0, 0.0, 0.0, 0.0, 1.6989585575690005E9, 0.0, 2023-11-02 16:55:57.569
8.0, -187500.02235174447, 187500.0, 19839.02839887481, 17723.74871060237, 187500.0, 187500.0, -187500.02235174447, 33656.47448974544, -0.092, 0.97, 0.106, 192.0, 0.0, 0.0, 0.0, 0.0, 0.0, 0.0, 0.0, 0.0, 0.0, 1.6989585575690167E9, 0.0, 2023-11-02 16:55:57.569
9.0, -187500.02235174447, 187500.0, 19840.034227375298, 17726.810899592747, 187500.0, 187500.0, -187500.02235174447, 33659.78254792483, -0.10200000000000001, 0.972, 0.10200000000000001, 192.0, 252.0, 208.0, 30.0, 96.0, 3.0, 48.0, 0.0, 0.0, 0.0, 1.69895855756905E9, 0.0, 2023-11-02 16:55:57.569
10.0, -187500.02235174447, 187500.0, 19838.536660496793, 17740.110187543654, 187500.0, 187500.0, -187500.02235174447, 33660.40839676957, -0.10200000000000001, 0.972, 0.10200000000000001, 192.0, 0.0, 0.0, 0.0, 0.0, 0.0, 0.0, 0.0, 0.0, 0.0, 1.6989585575690663E9, 0.0, 2023-11-02 16:55:57.569
11.0, -187500.02235174447, 187500.0, 19830.557087726247, 17734.74576887438, 187500.0, 187500.0, -187500.02235174447, 33652.18295481002, -0.10200000000000001, 0.972, 0.10200000000000001, 192.0, 0.0, 0.0, 0.0, 0.0, 0.0, 0.0, 0.0, 0.0, 0.0, 1.6989585575690794E9, 0.0, 2023-11-02 16:55:57.569
12.0, -187500.02235174447, 187500.0, 19834.513346494838, 17727.526155415315, 187500.0, 187500.0, -187500.02235174447, 33654.21696355545, -0.10200000000000001, 0.972, 0.10200000000000001, 192.0, 0.0, 0.0, 0.0, 0.0, 0.0, 0.0, 0.0, 0.0, 0.0, 1.698958557569108E9, 0.0, 2023-11-02 16:55:57.569
13.0, -187500.02235174447, 187500.0, 19833.663980205536, 17724.84394608068, 187500.0, 187500.0, -187500.02235174447, 33649.61250419766, -0.10200000000000001, 0.972, 0.10200000000000001, 192.0, 0.0, 0.0, 0.0, 0.0, 0.0, 0.0, 0.0, 0.0, 0.0, 1.6989585575691197E9, 0.0, 2023-11-02 16:55:57.569
14.0, -187500.02235174447, 187500.0, 19829.55125922576, 17725.067463525233, 187500.0, 187500.0, -187500.02235174447, 33644.24808552839, -0.10200000000000001, 0.972, 0.10200000000000001, 192.0, 0.0, 0.0, 0.0, 0.0, 0.0, 0.0, 0.0, 0.0, 0.0, 1.6989585575691311E9, 0.0, 2023-11-02 16:55:57.569
15.0, -187500.02235174447, 187500.0, 19824.745634167866, 17726.40856819255, 187500.0, 187500.0, -187500.02235174447, 33638.436631970006, -0.10200000000000001, 0.972, 0.10200000000000001, 192.0, 0.0, 0.0, 0.0, 0.0, 0.0, 0.0, 0.0, 0.0, 0.0, 1.6989585575691435E9, 0.0, 2023-11-02 16:55:57.569
16.0, -187500.02235174447, 187500.0, 19831.00412261535, 17726.565030403737, 187500.0, 187500.0, -187500.02235174447, 33645.83505938471, -0.10200000000000001, 0.972, 0.10200000000000001, 192.0, 0.0, 0.0, 0.0, 0.0, 0.0, 0.0, 0.0, 0.0, 0.0, 1.6989585575691574E9, 0.0, 2023-11-02 16:55:57.569
17.0, -187500.02235174447, 187500.0, 19840.369503542126, 17727.928486815512, 187500.0, 187500.0, -187500.02235174447, 33654.82046065575, -0.10200000000000001, 0.972, 0.10200000000000001, 192.0, 0.0, 0.0, 0.0, 0.0, 0.0, 0.0, 0.0, 0.0, 0.0, 1.6989585575691705E9, 0.0, 2023-11-02 16:55:57.569
18.0, -187500.02235174447, 187500.0, 19836.34618954017, 17726.60973389265, 187500.0, 187500.0, -187500.02235174447, 33651.26653328735, -0.10200000000000001, 0.97, 0.108, 192.0, 252.0, 208.0, 30.0, 80.0, 3.0, 96.0, 0.0, 0.0, 0.0, 1.6989585575691833E9, 0.0, 2023-11-02 16:55:57.569
19.0, -187500.02235174447, 187500.0, 19836.77087268482, 17728.375521704616, 187500.0, 187500.0, -187500.02235174447, 33651.691216432, -0.10200000000000001, 0.97, 0.108, 192.0, 0.0, 0.0, 0.0, 0.0, 0.0, 0.0, 0.0, 0.0, 0.0, 1.6989585575691965E9, 0.0, 2023-11-02 16:55:57.569
20.0, -187500.02235174447, 187500.0, 19837.955515140955, 17729.247239738375, 187500.0, 187500.0, -187500.02235174447, 33653.814632155256, -0.10200000000000001, 0.97, 0.108, 192.0, 0.0, 0.0, 0.0, 0.0, 0.0, 0.0, 0.0, 0.0, 0.0, 1.6989585575692103E9, 0.0, 2023-11-02 16:55:57.569
21.0, -187500.02235174447, 187500.0, 19841.844718676177, 17731.84004209519, 187500.0, 187500.0, -187500.02235174447, 33657.592076968205, -0.10200000000000001, 0.97, 0.108, 192.0, 0.0, 0.0, 0.0, 0.0, 0.0, 0.0, 0.0, 0.0, 0.0, 1.698958557569225E9, 0.0, 2023-11-02 16:55:57.569
22.0, -187500.02235174447, 187500.0, 19835.74269243988, 17728.26376298234, 187500.0, 187500.0, -187500.02235174447, 33650.30540827577, -0.10200000000000001, 0.97, 0.108, 192.0, 0.0, 0.0, 0.0, 0.0, 0.0, 0.0, 0.0, 0.0, 0.0, 1.6989585575692997E9, 0.0, 2023-11-02 16:55:57.569
23.0, -187500.02235174447, 187500.0, 19833.216945316428, 17731.61652465064, 187500.0, 187500.0, -187500.02235174447, 33645.70094891798, -0.10200000000000001, 0.97, 0.108, 192.0, 0.0, 0.0, 0.0, 0.0, 0.0, 0.0, 0.0, 0.0, 0.0, 1.6989585575693123E9, 0.0, 2023-11-02 16:55:57.569
24.0, -187500.02235174447, 187500.0, 19836.882631407098, 17730.878917083613, 187500.0, 187500.0, -187500.02235174447, 33649.545448964294, -0.10200000000000001, 0.97, 0.108, 192.0, 0.0, 0.0, 0.0, 0.0, 0.0, 0.0, 0.0, 0.0, 0.0, 1.6989585575693257E9, 0.0, 2023-11-02 16:55:57.569
25.0, -187500.02235174447, 187500.0, 19842.247050076374, 17729.917792072036, 187500.0, 187500.0, -187500.02235174447, 33655.222792055945, -0.10200000000000001, 0.97, 0.108, 192.0, 0.0, 0.0, 0.0, 0.0, 0.0, 0.0, 0.0, 0.0, 0.0, 1.6989585575693407E9, 0.0, 2023-11-02 16:55:57.569
26.0, -187500.02235174447, 187500.0, 19838.760177941345, 17738.143234031588, 187500.0, 187500.0, -187500.02235174447, 33653.1440798216, -0.10200000000000001, 0.97, 0.108, 192.0, 0.0, 0.0, 0.0, 0.0, 0.0, 0.0, 0.0, 0.0, 0.0, 1.6989585575693543E9, 0.0, 2023-11-02 16:55:57.569
27.0, -187500.02235174447, 187500.0, 19838.246087818872, 17743.395893978584, 187500.0, 187500.0, -187500.02235174447, 33652.40647225457, -0.10200000000000001, 0.97, 0.108, 192.0, 0.0, 0.0, 0.0, 0.0, 0.0, 0.0, 0.0, 0.0, 0.0, 1.6989585575693724E9, 0.0, 2023-11-02 16:55:57.569
28.0, -187500.02235174447, 187500.0, 19836.435596517993, 17738.12088228713, 187500.0, 187500.0, -187500.02235174447, 33648.87489663064, -0.1, 0.974, 0.10200000000000001, 192.0, 252.0, 224.0, 30.0, 112.0, 3.0, 48.0, 0.0, 0.0, 0.0, 1.698958557569384E9, 0.0, 2023-11-02 16:55:57.569
29.0, -187500.02235174447, 187500.0, 19836.815576173733, 17730.253068238864, 187500.0, 187500.0, -187500.02235174447, 33650.57362920924, -0.1, 0.974, 0.10200000000000001, 192.0, 0.0, 0.0, 0.0, 0.0, 0.0, 0.0, 0.0, 0.0, 0.0, 1.6989585575693967E9, 0.0, 2023-11-02 16:55:57.569
30.0, -187500.02235174447, 187500.0, 19830.937067381987, 17728.84490833818, 187500.0, 187500.0, -187500.02235174447, 33645.45507972897, -0.1, 0.974, 0.10200000000000001, 192.0, 0.0, 0.0, 0.0, 0.0, 0.0, 0.0, 0.0, 0.0, 0.0, 1.69895855756941E9, 0.0, 2023-11-02 16:55:57.569
31.0, -187500.02235174447, 187500.0, 19829.21598305893, 17735.37161771913, 187500.0, 187500.0, -187500.02235174447, 33643.0410913278, -0.1, 0.974, 0.10200000000000001, 192.0, 0.0, 0.0, 0.0, 0.0, 0.0, 0.0, 0.0, 0.0, 0.0, 1.6989585575694232E9, 0.0, 2023-11-02 16:55:57.569
32.0, -187500.02235174447, 187500.0, 19825.0809103347, 17733.85169909617, 187500.0, 187500.0, -187500.02235174447, 33638.436631970006, -0.1, 0.974, 0.10200000000000001, 192.0, 0.0, 0.0, 0.0, 0.0, 0.0, 0.0, 0.0, 0.0, 0.0, 1.698958557569438E9, 0.0, 2023-11-02 16:55:57.569
33.0, -187500.02235174447, 187500.0, 19817.347206753162, 17725.04511178078, 187500.0, 187500.0, -187500.02235174447, 33630.16648652154, -0.1, 0.974, 0.10200000000000001, 192.0, 0.0, 0.0, 0.0, 0.0, 0.0, 0.0, 0.0, 0.0, 0.0, 1.698958557569451E9, 0.0, 2023-11-02 16:55:57.569
34.0, -187500.02235174447, 187500.0, 19815.894343363565, 17729.023722293823, 187500.0, 187500.0, -187500.02235174447, 33630.21119001045, -0.1, 0.974, 0.10200000000000001, 192.0, 0.0, 0.0, 0.0, 0.0, 0.0, 0.0, 0.0, 0.0, 0.0, 1.6989585575694673E9, 0.0, 2023-11-02 16:55:57.569
35.0, -187500.02235174447, 187500.0, 19821.817555644222, 17738.389103220594, 187500.0, 187500.0, -187500.02235174447, 33636.15675403557, -0.1, 0.974, 0.10200000000000001, 192.0, 0.0, 0.0, 0.0, 0.0, 0.0, 0.0, 0.0, 0.0, 0.0, 1.6989585575694847E9, 0.0, 2023-11-02 16:55:57.569
36.0, -187500.02235174447, 187500.0, 19824.58917195668, 17749.363809748153, 187500.0, 187500.0, -187500.02235174447, 33638.637797670104, -0.1, 0.974, 0.10200000000000001, 192.0, 0.0, 0.0, 0.0, 0.0, 0.0, 0.0, 0.0, 0.0, 0.0, 1.6989585575695028E9, 0.0, 2023-11-02 16:55:57.569
37.0, -187500.02235174447, 187500.0, 19827.383140013593, 17753.767103405848, 187500.0, 187500.0, -187500.02235174447, 33640.47064071544, -0.1, 0.974, 0.10200000000000001, 192.0, 0.0, 0.0, 0.0, 0.0, 0.0, 0.0, 0.0, 0.0, 0.0, 1.6989585575697541E9, 0.0, 2023-11-02 16:55:57.569
38.0, -187500.02235174447, 187500.0, 19831.58526797119, 17755.443484239993, 187500.0, 187500.0, -187500.02235174447, 33644.65041692858, -0.096, 0.978, 0.106, 192.0, 253.0, 0.0, 30.0, 144.0, 3.0, 80.0, 0.0, 0.0, 0.0, 1.69895855756978E9, 0.0, 2023-11-02 16:55:57.569
39.0, -187500.02235174447, 187500.0, 19827.226677802406, 17758.639783697105, 187500.0, 187500.0, -187500.02235174447, 33639.062480814755, -0.096, 0.978, 0.106, 192.0, 0.0, 0.0, 0.0, 0.0, 0.0, 0.0, 0.0, 0.0, 0.0, 1.6989585575697966E9, 0.0, 2023-11-02 16:55:57.569
40.0, -187500.02235174447, 187500.0, 19825.30442777925, 17759.533853475317, 187500.0, 187500.0, -187500.02235174447, 33638.436631970006, -0.096, 0.978, 0.106, 192.0, 0.0, 0.0, 0.0, 0.0, 0.0, 0.0, 0.0, 0.0, 0.0, 1.698958557569811E9, 0.0, 2023-11-02 16:55:57.569
41.0, -187500.02235174447, 187500.0, 19829.126576081107, 17759.913833131057, 187500.0, 187500.0, -187500.02235174447, 33645.56683845125, -0.096, 0.978, 0.106, 192.0, 0.0, 0.0, 0.0, 0.0, 0.0, 0.0, 0.0, 0.0, 0.0, 1.6989585575698256E9, 0.0, 2023-11-02 16:55:57.569
42.0, -187500.02235174447, 187500.0, 19831.719378437923, 17754.102379572676, 187500.0, 187500.0, -187500.02235174447, 33648.07023383024, -0.096, 0.978, 0.106, 192.0, 0.0, 0.0, 0.0, 0.0, 0.0, 0.0, 0.0, 0.0, 0.0, 1.6989585575698373E9, 0.0, 2023-11-02 16:55:57.569
43.0, -187500.02235174447, 187500.0, 19829.126576081107, 17753.61064119466, 187500.0, 187500.0, -187500.02235174447, 33646.77383265184, -0.096, 0.978, 0.106, 192.0, 0.0, 0.0, 0.0, 0.0, 0.0, 0.0, 0.0, 0.0, 0.0, 1.69895855756986E9, 0.0, 2023-11-02 16:55:57.569
44.0, -187500.02235174447, 187500.0, 19828.34426502517, 17763.244243054898, 187500.0, 187500.0, -187500.02235174447, 33647.33262626322, -0.096, 0.978, 0.106, 192.0, 0.0, 0.0, 0.0, 0.0, 0.0, 0.0, 0.0, 0.0, 0.0, 1.6989585575698757E9, 0.0, 2023-11-02 16:55:57.569
45.0, -187500.02235174447, 187500.0, 19826.243201046374, 17764.69710644449, 187500.0, 187500.0, -187500.02235174447, 33644.67276867304, -0.096, 0.978, 0.106, 192.0, 0.0, 0.0, 0.0, 0.0, 0.0, 0.0, 0.0, 0.0, 0.0, 1.6989585575698924E9, 0.0, 2023-11-02 16:55:57.569
46.0, -187500.02235174447, 187500.0, 19833.842794161177, 17766.485246000917, 187500.0, 187500.0, -187500.02235174447, 33651.42299549854, -0.096, 0.978, 0.106, 192.0, 0.0, 0.0, 0.0, 0.0, 0.0, 0.0, 0.0, 0.0, 0.0, 1.698958557569909E9, 0.0, 2023-11-02 16:55:57.569
47.0, -187500.02235174447, 187500.0, 19828.992465614374, 17773.794266437802, 187500.0, 187500.0, -187500.02235174447, 33644.69512041749, -0.096, 0.978, 0.106, 192.0, 0.0, 0.0, 0.0, 0.0, 0.0, 0.0, 0.0, 0.0, 0.0, 1.6989585575699277E9, 0.0, 2023-11-02 16:55:57.569
48.0, -187500.02235174447, 187500.0, 19826.73493942439, 17778.197560095497, 187500.0, 187500.0, -187500.02235174447, 33641.32000700474, -0.098, 0.976, 0.108, 192.0, 252.0, 240.0, 30.0, 128.0, 3.0, 96.0, 0.0, 0.0, 0.0, 1.698958557569939E9, 0.0, 2023-11-02 16:55:57.569
49.0, -187500.02235174447, 187500.0, 19831.764081926834, 17779.985699651923, 187500.0, 187500.0, -187500.02235174447, 33646.14798380709, -0.098, 0.976, 0.108, 192.0, 0.0, 0.0, 0.0, 0.0, 0.0, 0.0, 0.0, 0.0, 0.0, 1.6989585575699544E9, 0.0, 2023-11-02 16:55:57.569
50.0, -187500.02235174447, 187500.0, 19834.55804998375, 17777.772876950847, 187500.0, 187500.0, -187500.02235174447, 33652.98761761041, -0.098, 0.976, 0.108, 192.0, 0.0, 0.0, 0.0, 0.0, 0.0, 0.0, 0.0, 0.0, 0.0, 1.6989585575699651E9, 0.0, 2023-11-02 16:55:57.569
51.0, -187500.02235174447, 187500.0, 19832.12170983812, 17772.72138270395, 187500.0, 187500.0, -187500.02235174447, 33653.255838543875, -0.098, 0.976, 0.108, 192.0, 0.0, 0.0, 0.0, 0.0, 0.0, 0.0, 0.0, 0.0, 0.0, 1.6989585575699751E9, 0.0, 2023-11-02 16:55:57.569
52.0, -187500.02235174447, 187500.0, 19826.667884191025, 17768.586309979717, 187500.0, 187500.0, -187500.02235174447, 33649.411338497564, -0.098, 0.976, 0.108, 192.0, 0.0, 0.0, 0.0, 0.0, 0.0, 0.0, 0.0, 0.0, 0.0, 1.698958557570066E9, 0.0, 2023-11-02 16:55:57.570
53.0, -187500.02235174447, 187500.0, 19820.610561443635, 17764.831216911225, 187500.0, 187500.0, -187500.02235174447, 33644.158678550564, -0.098, 0.976, 0.108, 192.0, 0.0, 0.0, 0.0, 0.0, 0.0, 0.0, 0.0, 0.0, 0.0, 1.6989585575700805E9, 0.0, 2023-11-02 16:55:57.570
54.0, -187500.02235174447, 187500.0, 19816.810764886235, 17755.756408662368, 187500.0, 187500.0, -187500.02235174447, 33638.8389633702, -0.098, 0.976, 0.108, 192.0, 0.0, 0.0, 0.0, 0.0, 0.0, 0.0, 0.0, 0.0, 0.0, 1.6989585575700908E9, 0.0, 2023-11-02 16:55:57.570
55.0, -187500.02235174447, 187500.0, 19813.569761940213, 17749.632030681616, 187500.0, 187500.0, -187500.02235174447, 33636.402623224574, -0.098, 0.976, 0.108, 192.0, 0.0, 0.0, 0.0, 0.0, 0.0, 0.0, 0.0, 0.0, 0.0, 1.6989585575701017E9, 0.0, 2023-11-02 16:55:57.570
56.0, -187500.02235174447, 187500.0, 19812.474526461905, 17747.687428914003, 187500.0, 187500.0, -187500.02235174447, 33636.84965811368, -0.098, 0.976, 0.108, 192.0, 0.0, 0.0, 0.0, 0.0, 0.0, 0.0, 0.0, 0.0, 0.0, 1.698958557570112E9, 0.0, 2023-11-02 16:55:57.570
57.0, -187500.02235174447, 187500.0, 19818.151869553552, 17748.64855392558, 187500.0, 187500.0, -187500.02235174447, 33641.23060002692, -0.098, 0.976, 0.108, 192.0, 0.0, 0.0, 0.0, 0.0, 0.0, 0.0, 0.0, 0.0, 0.0, 1.6989585575701396E9, 0.0, 2023-11-02 16:55:57.570
58.0, -187500.02235174447, 187500.0, 19821.571686455212, 17741.339533488695, 187500.0, 187500.0, -187500.02235174447, 33643.55518145027, -0.094, 0.978, 0.10400000000000001, 192.0, 253.0, 16.0, 30.0, 144.0, 3.0, 64.0, 0.0, 0.0, 0.0, 1.6989585575701497E9, 0.0, 2023-11-02 16:55:57.570
59.0, -187500.02235174447, 187500.0, 19820.34234051017, 17725.916829814534, 187500.0, 187500.0, -187500.02235174447, 33641.23060002692, -0.094, 0.978, 0.10400000000000001, 192.0, 0.0, 0.0, 0.0, 0.0, 0.0, 0.0, 0.0, 0.0, 0.0, 1.6989585575701604E9, 0.0, 2023-11-02 16:55:57.570
60.0, -187500.02235174447, 187500.0, 19822.890439378076, 17729.828385094213, 187500.0, 187500.0, -187500.02235174447, 33646.79618439629, -0.094, 0.978, 0.10400000000000001, 192.0, 0.0, 0.0, 0.0, 0.0, 0.0, 0.0, 0.0, 0.0, 0.0, 1.6989585575701704E9, 0.0, 2023-11-02 16:55:57.570
61.0, -187500.02235174447, 187500.0, 19827.807823158244, 17729.247239738375, 187500.0, 187500.0, -187500.02235174447, 33652.85350714368, -0.094, 0.978, 0.10400000000000001, 192.0, 0.0, 0.0, 0.0, 0.0, 0.0, 0.0, 0.0, 0.0, 0.0, 1.69895855757018E9, 0.0, 2023-11-02 16:55:57.570
62.0, -187500.02235174447, 187500.0, 19830.82530865971, 17712.975169774913, 187500.0, 187500.0, -187500.02235174447, 33654.32872227773, -0.094, 0.978, 0.10400000000000001, 192.0, 0.0, 0.0, 0.0, 0.0, 0.0, 0.0, 0.0, 0.0, 0.0, 1.6989585575701904E9, 0.0, 2023-11-02 16:55:57.570
63.0, -187500.02235174447, 187500.0, 19831.093529593174, 17690.08698345268, 187500.0, 187500.0, -187500.02235174447, 33655.37925426713, -0.094, 0.978, 0.10400000000000001, 192.0, 0.0, 0.0, 0.0, 0.0, 0.0, 0.0, 0.0, 0.0, 0.0, 1.6989585575702007E9, 0.0, 2023-11-02 16:55:57.570
64.0, -187500.02235174447, 187500.0, 19832.144061582574, 17679.78282925878, 187500.0, 187500.0, -187500.02235174447, 33658.17322232404, -0.094, 0.978, 0.10400000000000001, 192.0, 0.0, 0.0, 0.0, 0.0, 0.0, 0.0, 0.0, 0.0, 0.0, 1.6989585575702107E9, 0.0, 2023-11-02 16:55:57.570
65.0, -187500.02235174447, 187500.0, 19832.21111681594, 17669.031640175777, 187500.0, 187500.0, -187500.02235174447, 33660.318989791755, -0.094, 0.978, 0.10400000000000001, 192.0, 0.0, 0.0, 0.0, 0.0, 0.0, 0.0, 0.0, 0.0, 0.0, 1.6989585575702236E9, 0.0, 2023-11-02 16:55:57.570
66.0, -187500.02235174447, 187500.0, 19833.88749765009, 17652.468997534394, 187500.0, 187500.0, -187500.02235174447, 33666.04103637231, -0.094, 0.978, 0.10400000000000001, 192.0, 0.0, 0.0, 0.0, 0.0, 0.0, 0.0, 0.0, 0.0, 0.0, 1.6989585575702343E9, 0.0, 2023-11-02 16:55:57.570
67.0, -187500.02235174447, 187500.0, 19834.334532539193, 17635.660485704004, 187500.0, 187500.0, -187500.02235174447, 33669.01381838487, -0.094, 0.978, 0.10400000000000001, 192.0, 0.0, 0.0, 0.0, 0.0, 0.0, 0.0, 0.0, 0.0, 0.0, 1.698958557570244E9, 0.0, 2023-11-02 16:55:57.570
68.0, -187500.02235174447, 187500.0, 19829.14892782556, 17624.93164836546, 187500.0, 187500.0, -187500.02235174447, 33665.66105671657, -0.094, 0.98, 0.098, 192.0, 253.0, 16.0, 30.0, 160.0, 3.0, 16.0, 0.0, 0.0, 0.0, 1.698958557570341E9, 0.0, 2023-11-02 16:55:57.570
69.0, -187500.02235174447, 187500.0, 19827.383140013593, 17615.05217731621, 187500.0, 187500.0, -187500.02235174447, 33664.83404217172, -0.094, 0.98, 0.098, 192.0, 0.0, 0.0, 0.0, 0.0, 0.0, 0.0, 0.0, 0.0, 0.0, 1.698958557570352E9, 0.0, 2023-11-02 16:55:57.570
70.0, -187500.02235174447, 187500.0, 19825.7291109239, 17605.19505801142, 187500.0, 187500.0, -187500.02235174447, 33662.17418458154, -0.094, 0.98, 0.098, 192.0, 0.0, 0.0, 0.0, 0.0, 0.0, 0.0, 0.0, 0.0, 0.0, 1.6989585575703619E9, 0.0, 2023-11-02 16:55:57.570
71.0, -187500.02235174447, 187500.0, 19828.858355147644, 17589.370022937062, 187500.0, 187500.0, -187500.02235174447, 33665.45989101647, -0.094, 0.98, 0.098, 192.0, 0.0, 0.0, 0.0, 0.0, 0.0, 0.0, 0.0, 0.0, 0.0, 1.698958557570373E9, 0.0, 2023-11-02 16:55:57.570
72.0, -187500.02235174447, 187500.0, 19825.170317312517, 17579.8481797991, 187500.0, 187500.0, -187500.02235174447, 33662.15183283709, -0.094, 0.98, 0.098, 192.0, 0.0, 0.0, 0.0, 0.0, 0.0, 0.0, 0.0, 0.0, 0.0, 1.6989585575703833E9, 0.0, 2023-11-02 16:55:57.570
73.0, -187500.02235174447, 187500.0, 19822.9798463559, 17570.840426783612, 187500.0, 187500.0, -187500.02235174447, 33658.57555372424, -0.094, 0.98, 0.098, 192.0, 0.0, 0.0, 0.0, 0.0, 0.0, 0.0, 0.0, 0.0, 0.0, 1.6989585575703928E9, 0.0, 2023-11-02 16:55:57.570
74.0, -187500.02235174447, 187500.0, 19825.237372545886, 17562.682040057425, 187500.0, 187500.0, -187500.02235174447, 33659.17905082453, -0.094, 0.98, 0.098, 192.0, 0.0, 0.0, 0.0, 0.0, 0.0, 0.0, 0.0, 0.0, 0.0, 1.698958557570406E9, 0.0, 2023-11-02 16:55:57.570
75.0, -187500.02235174447, 187500.0, 19824.49976497886, 17540.66557176895, 187500.0, 187500.0, -187500.02235174447, 33657.3462077792, -0.094, 0.98, 0.098, 192.0, 0.0, 0.0, 0.0, 0.0, 0.0, 0.0, 0.0, 0.0, 0.0, 1.698958557570416E9, 0.0, 2023-11-02 16:55:57.570
76.0, -187500.02235174447, 187500.0, 19817.615427686625, 17522.046568637677, 187500.0, 187500.0, -187500.02235174447, 33651.62416119864, -0.094, 0.98, 0.098, 192.0, 0.0, 0.0, 0.0, 0.0, 0.0, 0.0, 0.0, 0.0, 0.0, 1.6989585575704255E9, 0.0, 2023-11-02 16:55:57.570
77.0, -187500.02235174447, 187500.0, 19815.044977074263, 17519.386711047497, 187500.0, 187500.0, -187500.02235174447, 33648.986655352914, -0.094, 0.98, 0.098, 192.0, 0.0, 0.0, 0.0, 0.0, 0.0, 0.0, 0.0, 0.0, 0.0, 1.6989585575704353E9, 0.0, 2023-11-02 16:55:57.570
78.0, -187500.02235174447, 187500.0, 19815.6261224301, 17518.760862202747, 187500.0, 187500.0, -187500.02235174447, 33648.18199255252, -0.096, 0.978, 0.106, 192.0, 253.0, 0.0, 30.0, 144.0, 3.0, 80.0, 0.0, 0.0, 0.0, 1.698958557570445E9, 0.0, 2023-11-02 16:55:57.570
79.0, -187500.02235174447, 187500.0, 19818.598904442657, 17516.525687757217, 187500.0, 187500.0, -187500.02235174447, 33651.11007107617, -0.096, 0.978, 0.106, 192.0, 0.0, 0.0, 0.0, 0.0, 0.0, 0.0, 0.0, 0.0, 0.0, 1.6989585575704553E9, 0.0, 2023-11-02 16:55:57.570
80.0, -187500.02235174447, 187500.0, 19819.180049798495, 17520.347836059074, 187500.0, 187500.0, -187500.02235174447, 33652.495879232396, -0.096, 0.978, 0.106, 192.0, 0.0, 0.0, 0.0, 0.0, 0.0, 0.0, 0.0, 0.0, 0.0, 1.698958557570465E9, 0.0, 2023-11-02 16:55:57.570
81.0, -187500.02235174447, 187500.0, 19819.090642820676, 17527.433339051408, 187500.0, 187500.0, -187500.02235174447, 33654.596943211196, -0.096, 0.978, 0.106, 192.0, 0.0, 0.0, 0.0, 0.0, 0.0, 0.0, 0.0, 0.0, 0.0, 1.6989585575704749E9, 0.0, 2023-11-02 16:55:57.570
82.0, -187500.02235174447, 187500.0, 19818.241276531375, 17535.189394377398, 187500.0, 187500.0, -187500.02235174447, 33656.20626881198, -0.096, 0.978, 0.106, 192.0, 0.0, 0.0, 0.0, 0.0, 0.0, 0.0, 0.0, 0.0, 0.0, 1.6989585575704844E9, 0.0, 2023-11-02 16:55:57.570
83.0, -187500.02235174447, 187500.0, 19814.10620380714, 17529.623810008026, 187500.0, 187500.0, -187500.02235174447, 33653.07702458823, -0.096, 0.978, 0.106, 192.0, 0.0, 0.0, 0.0, 0.0, 0.0, 0.0, 0.0, 0.0, 0.0, 1.6989585575705104E9, 0.0, 2023-11-02 16:55:57.570
84.0, -187500.02235174447, 187500.0, 19813.68152066249, 17532.17190887593, 187500.0, 187500.0, -187500.02235174447, 33654.08285308872, -0.096, 0.978, 0.106, 192.0, 0.0, 0.0, 0.0, 0.0, 0.0, 0.0, 0.0, 0.0, 0.0, 1.6989585575705204E9, 0.0, 2023-11-02 16:55:57.570
85.0, -187500.02235174447, 187500.0, 19810.373462483105, 17535.792891477693, 187500.0, 187500.0, -187500.02235174447, 33648.159640808066, -0.096, 0.978, 0.106, 192.0, 0.0, 0.0, 0.0, 0.0, 0.0, 0.0, 0.0, 0.0, 0.0, 1.69895855757053E9, 0.0, 2023-11-02 16:55:57.570
86.0, -187500.02235174447, 187500.0, 19812.96626483992, 17541.157310146966, 187500.0, 187500.0, -187500.02235174447, 33648.785489652815, -0.096, 0.978, 0.106, 192.0, 0.0, 0.0, 0.0, 0.0, 0.0, 0.0, 0.0, 0.0, 0.0, 1.6989585575705419E9, 0.0, 2023-11-02 16:55:57.570
87.0, -187500.02235174447, 187500.0, 19823.06925333372, 17549.203938150877, 187500.0, 187500.0, -187500.02235174447, 33657.592076968205, -0.096, 0.978, 0.106, 192.0, 0.0, 0.0, 0.0, 0.0, 0.0, 0.0, 0.0, 0.0, 0.0, 1.698958557570552E9, 0.0, 2023-11-02 16:55:57.570
88.0, -187500.02235174447, 187500.0, 19822.041073088774, 17551.1932434074, 187500.0, 187500.0, -187500.02235174447, 33656.966228123456, -0.096, 0.974, 0.11, 192.0, 253.0, 0.0, 30.0, 112.0, 3.0, 112.0, 0.0, 0.0, 0.0, 1.698958557570562E9, 0.0, 2023-11-02 16:55:57.570
89.0, -187500.02235174447, 187500.0, 19819.694139920968, 17556.535310332216, 187500.0, 187500.0, -187500.02235174447, 33654.596943211196, -0.096, 0.974, 0.11, 192.0, 0.0, 0.0, 0.0, 0.0, 0.0, 0.0, 0.0, 0.0, 0.0, 1.6989585575705724E9, 0.0, 2023-11-02 16:55:57.570
90.0, -187500.02235174447, 187500.0, 19819.11299456513, 17562.883205757524, 187500.0, 187500.0, -187500.02235174447, 33655.08868158921, -0.096, 0.974, 0.11, 192.0, 0.0, 0.0, 0.0, 0.0, 0.0, 0.0, 0.0, 0.0, 0.0, 1.698958557570582E9, 0.0, 2023-11-02 16:55:57.570
91.0, -187500.02235174447, 187500.0, 19822.35399751115, 17565.788932536714, 187500.0, 187500.0, -187500.02235174447, 33659.15669908008, -0.096, 0.974, 0.11, 192.0, 0.0, 0.0, 0.0, 0.0, 0.0, 0.0, 0.0, 0.0, 0.0, 1.698958557570592E9, 0.0, 2023-11-02 16:55:57.570
92.0, -187500.02235174447, 187500.0, 19822.21988704442, 17563.531406346727, 187500.0, 187500.0, -187500.02235174447, 33660.18487932502, -0.096, 0.974, 0.11, 192.0, 0.0, 0.0, 0.0, 0.0, 0.0, 0.0, 0.0, 0.0, 0.0, 1.6989585575706017E9, 0.0, 2023-11-02 16:55:57.570
93.0, -187500.02235174447, 187500.0, 19814.419128229514, 17566.70535405938, 187500.0, 187500.0, -187500.02235174447, 33651.84767864319, -0.096, 0.974, 0.11, 192.0, 0.0, 0.0, 0.0, 0.0, 0.0, 0.0, 0.0, 0.0, 0.0, 1.6989585575706112E9, 0.0, 2023-11-02 16:55:57.570
94.0, -187500.02235174447, 187500.0, 19808.764136882324, 17574.260243685276, 187500.0, 187500.0, -187500.02235174447, 33645.03039658432, -0.096, 0.974, 0.11, 192.0, 0.0, 0.0, 0.0, 0.0, 0.0, 0.0, 0.0, 0.0, 0.0, 1.6989585575706208E9, 0.0, 2023-11-02 16:55:57.570
95.0, -187500.02235174447, 187500.0, 19803.73499437988, 17567.934700004425, 187500.0, 187500.0, -187500.02235174447, 33638.66014941456, -0.096, 0.974, 0.11, 192.0, 0.0, 0.0, 0.0, 0.0, 0.0, 0.0, 0.0, 0.0, 0.0, 1.6989585575706315E9, 0.0, 2023-11-02 16:55:57.570
96.0, -187500.02235174447, 187500.0, 19812.429822972994, 17571.734496561825, 187500.0, 187500.0, -187500.02235174447, 33647.13146056312, -0.096, 0.974, 0.11, 192.0, 0.0, 0.0, 0.0, 0.0, 0.0, 0.0, 0.0, 0.0, 0.0, 1.698958557570642E9, 0.0, 2023-11-02 16:55:57.570
97.0, -187500.02235174447, 187500.0, 19812.228657272895, 17577.90357803149, 187500.0, 187500.0, -187500.02235174447, 33646.259742529364, -0.096, 0.974, 0.11, 192.0, 0.0, 0.0, 0.0, 0.0, 0.0, 0.0, 0.0, 0.0, 0.0, 1.698958557570652E9, 0.0, 2023-11-02 16:55:57.570
98.0, -187500.02235174447, 187500.0, 19809.30057874925, 17585.413764168476, 187500.0, 187500.0, -187500.02235174447, 33642.45994597196, -0.094, 0.978, 0.11, 192.0, 253.0, 16.0, 30.0, 144.0, 3.0, 112.0, 0.0, 0.0, 0.0, 1.6989585575706725E9, 0.0, 2023-11-02 16:55:57.570
99.0, -187500.02235174447, 187500.0, 19811.267532261318, 17579.33408967663, 187500.0, 187500.0, -187500.02235174447, 33642.23642852741, -0.094, 0.978, 0.11, 192.0, 0.0, 0.0, 0.0, 0.0, 0.0, 0.0, 0.0, 0.0, 0.0, 1.6989585575706828E9, 0.0, 2023-11-02 16:55:57.570
100.0, -187500.02235174447, 187500.0, 19815.179087540997, 17576.271900686254, 187500.0, 187500.0, -187500.02235174447, 33645.81270764026, -0.094, 0.978, 0.11, 192.0, 0.0, 0.0, 0.0, 0.0, 0.0, 0.0, 0.0, 0.0, 0.0, 1.6989585575706923E9, 0.0, 2023-11-02 16:55:57.570
101.0, -187500.02235174447, 187500.0, 19808.317101993216, 17579.199979209898, 187500.0, 187500.0, -187500.02235174447, 33640.26947501534, -0.094, 0.978, 0.11, 192.0, 0.0, 0.0, 0.0, 0.0, 0.0, 0.0, 0.0, 0.0, 0.0, 1.698958557570702E9, 0.0, 2023-11-02 16:55:57.570
102.0, -187500.02235174447, 187500.0, 19817.235448030886, 17589.14650549251, 187500.0, 187500.0, -187500.02235174447, 33649.12076581964, -0.094, 0.978, 0.11, 192.0, 0.0, 0.0, 0.0, 0.0, 0.0, 0.0, 0.0, 0.0, 0.0, 1.698958557570712E9, 0.0, 2023-11-02 16:55:57.570
103.0, -187500.02235174447, 187500.0, 19821.16935505502, 17593.28157821674, 187500.0, 187500.0, -187500.02235174447, 33652.831155399224, -0.094, 0.978, 0.11, 192.0, 0.0, 0.0, 0.0, 0.0, 0.0, 0.0, 0.0, 0.0, 0.0, 1.6989585575707228E9, 0.0, 2023-11-02 16:55:57.570
104.0, -187500.02235174447, 187500.0, 19817.034282330787, 17586.129019991044, 187500.0, 187500.0, -187500.02235174447, 33648.33845476371, -0.094, 0.978, 0.11, 192.0, 0.0, 0.0, 0.0, 0.0, 0.0, 0.0, 0.0, 0.0, 0.0, 1.6989585575707324E9, 0.0, 2023-11-02 16:55:57.570
105.0, -187500.02235174447, 187500.0, 19815.44730847446, 17577.948281520403, 187500.0, 187500.0, -187500.02235174447, 33646.03622508481, -0.094, 0.978, 0.11, 192.0, 0.0, 0.0, 0.0, 0.0, 0.0, 0.0, 0.0, 0.0, 0.0, 1.698958557570742E9, 0.0, 2023-11-02 16:55:57.570
106.0, -187500.02235174447, 187500.0, 19810.68638690548, 17584.586749623628, 187500.0, 187500.0, -187500.02235174447, 33642.348187249685, -0.094, 0.978, 0.11, 192.0, 0.0, 0.0, 0.0, 0.0, 0.0, 0.0, 0.0, 0.0, 0.0, 1.6989585575707517E9, 0.0, 2023-11-02 16:55:57.570
107.0, -187500.02235174447, 187500.0, 19804.405546713537, 17594.24270322832, 187500.0, 187500.0, -187500.02235174447, 33637.520210447336, -0.094, 0.978, 0.11, 192.0, 0.0, 0.0, 0.0, 0.0, 0.0, 0.0, 0.0, 0.0, 0.0, 1.6989585575707643E9, 0.0, 2023-11-02 16:55:57.570
108.0, -187500.02235174447, 187500.0, 19804.852581602645, 17591.42638342695, 187500.0, 187500.0, -187500.02235174447, 33638.25781801436, -0.10200000000000001, 0.978, 0.10400000000000001, 192.0, 252.0, 208.0, 30.0, 144.0, 3.0, 64.0, 0.0, 0.0, 0.0, 1.6989585575707753E9, 0.0, 2023-11-02 16:55:57.570
109.0, -187500.02235174447, 187500.0, 19810.06053806073, 17593.974482294856, 187500.0, 187500.0, -187500.02235174447, 33643.91280936156, -0.10200000000000001, 0.978, 0.10400000000000001, 192.0, 0.0, 0.0, 0.0, 0.0, 0.0, 0.0, 0.0, 0.0, 0.0, 1.6989585575707865E9, 0.0, 2023-11-02 16:55:57.570
110.0, -187500.02235174447, 187500.0, 19803.153849024042, 17598.556589908196, 187500.0, 187500.0, -187500.02235174447, 33637.76607963635, -0.10200000000000001, 0.978, 0.10400000000000001, 192.0, 0.0, 0.0, 0.0, 0.0, 0.0, 0.0, 0.0, 0.0, 0.0, 1.6989585575707977E9, 0.0, 2023-11-02 16:55:57.570
111.0, -187500.02235174447, 187500.0, 19801.544523423257, 17599.316549219675, 187500.0, 187500.0, -187500.02235174447, 33635.17327727953, -0.10200000000000001, 0.978, 0.10400000000000001, 192.0, 0.0, 0.0, 0.0, 0.0, 0.0, 0.0, 0.0, 0.0, 0.0, 1.6989585575708096E9, 0.0, 2023-11-02 16:55:57.570
112.0, -187500.02235174447, 187500.0, 19792.53677040777, 17592.409860182986, 187500.0, 187500.0, -187500.02235174447, 33626.32198647523, -0.10200000000000001, 0.978, 0.10400000000000001, 192.0, 0.0, 0.0, 0.0, 0.0, 0.0, 0.0, 0.0, 0.0, 0.0, 1.6989585575708194E9, 0.0, 2023-11-02 16:55:57.570
113.0, -187500.02235174447, 187500.0, 19793.363784952617, 17589.660595614983, 187500.0, 187500.0, -187500.02235174447, 33629.42887895452, -0.10200000000000001, 0.978, 0.10400000000000001, 192.0, 0.0, 0.0, 0.0, 0.0, 0.0, 0.0, 0.0, 0.0, 0.0, 1.69895855757084E9, 0.0, 2023-11-02 16:55:57.570
114.0, -187500.02235174447, 187500.0, 19790.435706428972, 17595.315586962173, 187500.0, 187500.0, -187500.02235174447, 33628.40069870957, -0.10200000000000001, 0.978, 0.10400000000000001, 192.0, 0.0, 0.0, 0.0, 0.0, 0.0, 0.0, 0.0, 0.0, 0.0, 1.6989585575708508E9, 0.0, 2023-11-02 16:55:57.570
115.0, -187500.02235174447, 187500.0, 19784.065459259207, 17600.61295039808, 187500.0, 187500.0, -187500.02235174447, 33619.92938756101, -0.10200000000000001, 0.978, 0.10400000000000001, 192.0, 0.0, 0.0, 0.0, 0.0, 0.0, 0.0, 0.0, 0.0, 0.0, 1.6989585575708604E9, 0.0, 2023-11-02 16:55:57.570
116.0, -187500.02235174447, 187500.0, 19785.16069473752, 17603.071642288167, 187500.0, 187500.0, -187500.02235174447, 33621.18108525051, -0.10200000000000001, 0.978, 0.10400000000000001, 192.0, 0.0, 0.0, 0.0, 0.0, 0.0, 0.0, 0.0, 0.0, 0.0, 1.6989585575708702E9, 0.0, 2023-11-02 16:55:57.570
117.0, -187500.02235174447, 187500.0, 19788.04406977225, 17593.773316594757, 187500.0, 187500.0, -187500.02235174447, 33621.47165792843, -0.10200000000000001, 0.978, 0.10400000000000001, 192.0, 0.0, 0.0, 0.0, 0.0, 0.0, 0.0, 0.0, 0.0, 0.0, 1.69895855757088E9, 0.0, 2023-11-02 16:55:57.570
118.0, -187500.02235174447, 187500.0, 19790.16748549551, 17602.95988356589, 187500.0, 187500.0, -187500.02235174447, 33624.15386726306, -0.10400000000000001, 0.966, 0.10200000000000001, 192.0, 252.0, 192.0, 30.0, 48.0, 3.0, 48.0, 0.0, 0.0, 0.0, 1.6989585575708897E9, 0.0, 2023-11-02 16:55:57.570
119.0, -187500.02235174447, 187500.0, 19784.423087170493, 17608.346653979617, 187500.0, 187500.0, -187500.02235174447, 33617.22482648192, -0.10400000000000001, 0.966, 0.10200000000000001, 192.0, 0.0, 0.0, 0.0, 0.0, 0.0, 0.0, 0.0, 0.0, 0.0, 1.6989585575709E9, 0.0, 2023-11-02 16:55:57.570
120.0, -187500.02235174447, 187500.0, 19781.159732480017, 17604.278636488754, 187500.0, 187500.0, -187500.02235174447, 33610.69811710097, -0.10400000000000001, 0.966, 0.10200000000000001, 192.0, 0.0, 0.0, 0.0, 0.0, 0.0, 0.0, 0.0, 0.0, 0.0, 1.6989585575709095E9, 0.0, 2023-11-02 16:55:57.570
121.0, -187500.02235174447, 187500.0, 19790.54746515125, 17606.469107445373, 187500.0, 187500.0, -187500.02235174447, 33617.94008230449, -0.10400000000000001, 0.966, 0.10200000000000001, 192.0, 0.0, 0.0, 0.0, 0.0, 0.0, 0.0, 0.0, 0.0, 0.0, 1.6989585575709207E9, 0.0, 2023-11-02 16:55:57.570
122.0, -187500.02235174447, 187500.0, 19796.649491387547, 17615.275694760763, 187500.0, 187500.0, -187500.02235174447, 33622.54454166228, -0.10400000000000001, 0.966, 0.10200000000000001, 192.0, 0.0, 0.0, 0.0, 0.0, 0.0, 0.0, 0.0, 0.0, 0.0, 1.6989585575709324E9, 0.0, 2023-11-02 16:55:57.570
123.0, -187500.02235174447, 187500.0, 19801.142192023064, 17610.984159825344, 187500.0, 187500.0, -187500.02235174447, 33623.57272190723, -0.10400000000000001, 0.966, 0.10200000000000001, 192.0, 0.0, 0.0, 0.0, 0.0, 0.0, 0.0, 0.0, 0.0, 0.0, 1.698958557570946E9, 0.0, 2023-11-02 16:55:57.570
124.0, -187500.02235174447, 187500.0, 19804.852581602645, 17606.647921401014, 187500.0, 187500.0, -187500.02235174447, 33624.04210854079, -0.10400000000000001, 0.966, 0.10200000000000001, 192.0, 0.0, 0.0, 0.0, 0.0, 0.0, 0.0, 0.0, 0.0, 0.0, 1.698958557570958E9, 0.0, 2023-11-02 16:55:57.570
125.0, -187500.02235174447, 187500.0, 19805.053747302743, 17595.04736602871, 187500.0, 187500.0, -187500.02235174447, 33621.69517537298, -0.10400000000000001, 0.966, 0.10200000000000001, 192.0, 0.0, 0.0, 0.0, 0.0, 0.0, 0.0, 0.0, 0.0, 0.0, 1.6989585575709713E9, 0.0, 2023-11-02 16:55:57.570
126.0, -187500.02235174447, 187500.0, 19802.662110646022, 17599.495363175316, 187500.0, 187500.0, -187500.02235174447, 33616.57662589272, -0.10400000000000001, 0.966, 0.10200000000000001, 192.0, 0.0, 0.0, 0.0, 0.0, 0.0, 0.0, 0.0, 0.0, 0.0, 1.6989585575709825E9, 0.0, 2023-11-02 16:55:57.570
127.0, -187500.02235174447, 187500.0, 19796.49302917636, 17597.371947452062, 187500.0, 187500.0, -187500.02235174447, 33611.68159385701, -0.10400000000000001, 0.966, 0.10200000000000001, 192.0, 0.0, 0.0, 0.0, 0.0, 0.0, 0.0, 0.0, 0.0, 0.0, 1.6989585575709953E9, 0.0, 2023-11-02 16:55:57.570
128.0, -187500.02235174447, 187500.0, 19798.34822396615, 17599.785935853237, 187500.0, 187500.0, -187500.02235174447, 33615.52609390332, -0.108, 0.982, 0.106, 192.0, 252.0, 160.0, 30.0, 176.0, 3.0, 80.0, 0.0, 0.0, 0.0, 1.6989585575710063E9, 0.0, 2023-11-02 16:55:57.571
129.0, -187500.02235174447, 187500.0, 19794.01198554182, 17596.00849104029, 187500.0, 187500.0, -187500.02235174447, 33611.74864909037, -0.108, 0.982, 0.106, 192.0, 0.0, 0.0, 0.0, 0.0, 0.0, 0.0, 0.0, 0.0, 0.0, 1.6989585575710485E9, 0.0, 2023-11-02 16:55:57.571
130.0, -187500.02235174447, 187500.0, 19794.123744264096, 17596.58963639613, 187500.0, 187500.0, -187500.02235174447, 33611.234558967895, -0.108, 0.982, 0.106, 192.0, 0.0, 0.0, 0.0, 0.0, 0.0, 0.0, 0.0, 0.0, 0.0, 1.6989585575710993E9, 0.0, 2023-11-02 16:55:57.571
131.0, -187500.02235174447, 187500.0, 19797.25298848784, 17610.447717958417, 187500.0, 187500.0, -187500.02235174447, 33614.02852702481, -0.108, 0.982, 0.106, 192.0, 0.0, 0.0, 0.0, 0.0, 0.0, 0.0, 0.0, 0.0, 0.0, 1.698958557571111E9, 0.0, 2023-11-02 16:55:57.571
132.0, -187500.02235174447, 187500.0, 19794.72724136439, 17617.15324129501, 187500.0, 187500.0, -187500.02235174447, 33612.97799503541, -0.108, 0.982, 0.106, 192.0, 0.0, 0.0, 0.0, 0.0, 0.0, 0.0, 0.0, 0.0, 0.0, 1.6989585575711236E9, 0.0, 2023-11-02 16:55:57.571
133.0, -187500.02235174447, 187500.0, 19797.409450699026, 17615.365101738586, 187500.0, 187500.0, -187500.02235174447, 33616.5319224038, -0.108, 0.982, 0.106, 192.0, 0.0, 0.0, 0.0, 0.0, 0.0, 0.0, 0.0, 0.0, 0.0, 1.6989585575711381E9, 0.0, 2023-11-02 16:55:57.571
134.0, -187500.02235174447, 187500.0, 19802.371537968105, 17613.77812788226, 187500.0, 187500.0, -187500.02235174447, 33620.9352160615, -0.108, 0.982, 0.106, 192.0, 0.0, 0.0, 0.0, 0.0, 0.0, 0.0, 0.0, 0.0, 0.0, 1.6989585575711508E9, 0.0, 2023-11-02 16:55:57.571
135.0, -187500.02235174447, 187500.0, 19799.085831533175, 17625.825718143667, 187500.0, 187500.0, -187500.02235174447, 33618.096544515676, -0.108, 0.982, 0.106, 192.0, 0.0, 0.0, 0.0, 0.0, 0.0, 0.0, 0.0, 0.0, 0.0, 1.6989585575711648E9, 0.0, 2023-11-02 16:55:57.571
136.0, -187500.02235174447, 187500.0, 19804.8749333471, 17635.056988603712, 187500.0, 187500.0, -187500.02235174447, 33625.07028878573, -0.108, 0.982, 0.106, 192.0, 0.0, 0.0, 0.0, 0.0, 0.0, 0.0, 0.0, 0.0, 0.0, 1.698958557571185E9, 0.0, 2023-11-02 16:55:57.571
137.0, -187500.02235174447, 187500.0, 19810.86520086112, 17629.312590278696, 187500.0, 187500.0, -187500.02235174447, 33631.52994293332, -0.108, 0.982, 0.106, 192.0, 0.0, 0.0, 0.0, 0.0, 0.0, 0.0, 0.0, 0.0, 0.0, 1.6989585575711987E9, 0.0, 2023-11-02 16:55:57.571
138.0, -187500.02235174447, 187500.0, 19814.15090729605, 17625.78101465476, 187500.0, 187500.0, -187500.02235174447, 33634.48037320142, -0.1, 0.98, 0.114, 192.0, 252.0, 224.0, 30.0, 160.0, 3.0, 144.0, 0.0, 0.0, 0.0, 1.6989585575712142E9, 0.0, 2023-11-02 16:55:57.571
139.0, -187500.02235174447, 187500.0, 19811.31223575023, 17628.552630967217, 187500.0, 187500.0, -187500.02235174447, 33631.46288769995, -0.1, 0.98, 0.114, 192.0, 0.0, 0.0, 0.0, 0.0, 0.0, 0.0, 0.0, 0.0, 0.0, 1.6989585575712287E9, 0.0, 2023-11-02 16:55:57.571
140.0, -187500.02235174447, 187500.0, 19816.00610208584, 17640.242593317344, 187500.0, 187500.0, -187500.02235174447, 33633.541599934295, -0.1, 0.98, 0.114, 192.0, 0.0, 0.0, 0.0, 0.0, 0.0, 0.0, 0.0, 0.0, 0.0, 1.698958557571239E9, 0.0, 2023-11-02 16:55:57.571
141.0, -187500.02235174447, 187500.0, 19813.54741019576, 17642.500119507327, 187500.0, 187500.0, -187500.02235174447, 33628.62421615412, -0.1, 0.98, 0.114, 192.0, 0.0, 0.0, 0.0, 0.0, 0.0, 0.0, 0.0, 0.0, 0.0, 1.6989585575712492E9, 0.0, 2023-11-02 16:55:57.571
142.0, -187500.02235174447, 187500.0, 19812.36276773963, 17636.040465359743, 187500.0, 187500.0, -187500.02235174447, 33626.478448686416, -0.1, 0.98, 0.114, 192.0, 0.0, 0.0, 0.0, 0.0, 0.0, 0.0, 0.0, 0.0, 0.0, 1.6989585575712593E9, 0.0, 2023-11-02 16:55:57.571
143.0, -187500.02235174447, 187500.0, 19813.279189262295, 17633.447663002928, 187500.0, 187500.0, -187500.02235174447, 33627.394870209086, -0.1, 0.98, 0.114, 192.0, 0.0, 0.0, 0.0, 0.0, 0.0, 0.0, 0.0, 0.0, 0.0, 1.6989585575712693E9, 0.0, 2023-11-02 16:55:57.571
144.0, -187500.02235174447, 187500.0, 19816.184916041486, 17641.36018054011, 187500.0, 187500.0, -187500.02235174447, 33632.982806322914, -0.1, 0.98, 0.114, 192.0, 0.0, 0.0, 0.0, 0.0, 0.0, 0.0, 0.0, 0.0, 0.0, 1.6989585575712929E9, 0.0, 2023-11-02 16:55:57.571
145.0, -187500.02235174447, 187500.0, 19819.761195154333, 17648.95977365491, 187500.0, 187500.0, -187500.02235174447, 33638.99542558139, -0.1, 0.98, 0.114, 192.0, 0.0, 0.0, 0.0, 0.0, 0.0, 0.0, 0.0, 0.0, 0.0, 1.698958557571304E9, 0.0, 2023-11-02 16:55:57.571
146.0, -187500.02235174447, 187500.0, 19809.948779338454, 17641.427235773474, 187500.0, 187500.0, -187500.02235174447, 33630.188838265996, -0.1, 0.98, 0.114, 192.0, 0.0, 0.0, 0.0, 0.0, 0.0, 0.0, 0.0, 0.0, 0.0, 1.6989585575713143E9, 0.0, 2023-11-02 16:55:57.571
147.0, -187500.02235174447, 187500.0, 19811.602808428146, 17639.169709583486, 187500.0, 187500.0, -187500.02235174447, 33633.049861556276, -0.1, 0.98, 0.114, 192.0, 0.0, 0.0, 0.0, 0.0, 0.0, 0.0, 0.0, 0.0, 0.0, 1.6989585575713243E9, 0.0, 2023-11-02 16:55:57.571
148.0, -187500.02235174447, 187500.0, 19808.652378160048, 17644.556479997216, 187500.0, 187500.0, -187500.02235174447, 33632.55812317826, -0.09, 0.98, 0.112, 192.0, 253.0, 48.0, 30.0, 160.0, 3.0, 128.0, 0.0, 0.0, 0.0, 1.6989585575713367E9, 0.0, 2023-11-02 16:55:57.571
149.0, -187500.02235174447, 187500.0, 19813.569761940213, 17648.445683532438, 187500.0, 187500.0, -187500.02235174447, 33636.536733691304, -0.09, 0.98, 0.112, 192.0, 0.0, 0.0, 0.0, 0.0, 0.0, 0.0, 0.0, 0.0, 0.0, 1.6989585575713494E9, 0.0, 2023-11-02 16:55:57.571
150.0, -187500.02235174447, 187500.0, 19813.435651473483, 17641.315477051197, 187500.0, 187500.0, -187500.02235174447, 33634.458021456965, -0.09, 0.98, 0.112, 192.0, 0.0, 0.0, 0.0, 0.0, 0.0, 0.0, 0.0, 0.0, 0.0, 1.6989585575713644E9, 0.0, 2023-11-02 16:55:57.571
151.0, -187500.02235174447, 187500.0, 19812.228657272895, 17634.431139758963, 187500.0, 187500.0, -187500.02235174447, 33631.41818421104, -0.09, 0.98, 0.112, 192.0, 0.0, 0.0, 0.0, 0.0, 0.0, 0.0, 0.0, 0.0, 0.0, 1.6989585575713768E9, 0.0, 2023-11-02 16:55:57.571
152.0, -187500.02235174447, 187500.0, 19805.67959614749, 17633.894697892036, 187500.0, 187500.0, -187500.02235174447, 33622.343375962184, -0.09, 0.98, 0.112, 192.0, 0.0, 0.0, 0.0, 0.0, 0.0, 0.0, 0.0, 0.0, 0.0, 1.698958557571392E9, 0.0, 2023-11-02 16:55:57.571
153.0, -187500.02235174447, 187500.0, 19810.664035161022, 17639.706151450417, 187500.0, 187500.0, -187500.02235174447, 33628.06542254274, -0.09, 0.98, 0.112, 192.0, 0.0, 0.0, 0.0, 0.0, 0.0, 0.0, 0.0, 0.0, 0.0, 1.698958557571406E9, 0.0, 2023-11-02 16:55:57.571
154.0, -187500.02235174447, 187500.0, 19818.464793975927, 17652.223128345388, 187500.0, 187500.0, -187500.02235174447, 33635.66501565755, -0.09, 0.98, 0.112, 192.0, 0.0, 0.0, 0.0, 0.0, 0.0, 0.0, 0.0, 0.0, 0.0, 1.698958557571418E9, 0.0, 2023-11-02 16:55:57.571
155.0, -187500.02235174447, 187500.0, 19811.423994472505, 17650.77026495579, 187500.0, 187500.0, -187500.02235174447, 33627.84190509819, -0.09, 0.98, 0.112, 192.0, 0.0, 0.0, 0.0, 0.0, 0.0, 0.0, 0.0, 0.0, 0.0, 1.6989585579863117E9, 0.0, 2023-11-02 16:55:57.986
156.0, -187500.02235174447, 187500.0, 19812.832154373187, 17656.291145836254, 187500.0, 187500.0, -187500.02235174447, 33629.38417546561, -0.09, 0.98, 0.112, 192.0, 0.0, 0.0, 0.0, 0.0, 0.0, 0.0, 0.0, 0.0, 0.0, 1.6989585579864707E9, 0.0, 2023-11-02 16:55:57.986
157.0, -187500.02235174447, 187500.0, 19820.431747487994, 17668.137570397565, 187500.0, 187500.0, -187500.02235174447, 33636.2908645023, -0.078, 0.976, 0.1, 192.0, 253.0, 144.0, 30.0, 128.0, 3.0, 32.0, 0.0, 0.0, 0.0, 1.6989585579864938E9, 0.0, 2023-11-02 16:55:57.986
158.0, -187500.02235174447, 187500.0, 19819.940009109978, 17665.88004420758, 187500.0, 187500.0, -187500.02235174447, 33637.07317555823, -0.078, 0.976, 0.1, 192.0, 0.0, 0.0, 0.0, 0.0, 0.0, 0.0, 0.0, 0.0, 0.0, 1.6989585579865353E9, 0.0, 2023-11-02 16:55:57.986
159.0, -187500.02235174447, 187500.0, 19818.91182886503, 17664.002497673333, 187500.0, 187500.0, -187500.02235174447, 33637.1402307916, -0.078, 0.976, 0.1, 192.0, 0.0, 0.0, 0.0, 0.0, 0.0, 0.0, 0.0, 0.0, 0.0, 1.698958557986786E9, 0.0, 2023-11-02 16:55:57.986
160.0, -187500.02235174447, 187500.0, 19815.6261224301, 17668.606957031127, 187500.0, 187500.0, -187500.02235174447, 33634.1898005235, -0.078, 0.976, 0.1, 192.0, 0.0, 0.0, 0.0, 0.0, 0.0, 0.0, 0.0, 0.0, 0.0, 1.6989585579867976E9, 0.0, 2023-11-02 16:55:57.986
161.0, -187500.02235174447, 187500.0, 19816.6766544195, 17673.725506511393, 187500.0, 187500.0, -187500.02235174447, 33634.77094587933, -0.078, 0.976, 0.1, 192.0, 0.0, 0.0, 0.0, 0.0, 0.0, 0.0, 0.0, 0.0, 0.0, 1.6989585579868095E9, 0.0, 2023-11-02 16:55:57.986
162.0, -187500.02235174447, 187500.0, 19820.16352655453, 17671.579739043682, 187500.0, 187500.0, -187500.02235174447, 33636.51438194685, -0.078, 0.976, 0.1, 192.0, 0.0, 0.0, 0.0, 0.0, 0.0, 0.0, 0.0, 0.0, 0.0, 1.6989585579868207E9, 0.0, 2023-11-02 16:55:57.986
163.0, -187500.02235174447, 187500.0, 19815.916695108022, 17659.39803831554, 187500.0, 187500.0, -187500.02235174447, 33631.32877723322, -0.078, 0.976, 0.1, 192.0, 0.0, 0.0, 0.0, 0.0, 0.0, 0.0, 0.0, 0.0, 0.0, 1.6989585579868326E9, 0.0, 2023-11-02 16:55:57.986
164.0, -187500.02235174447, 187500.0, 19815.20143928545, 17657.40873305902, 187500.0, 187500.0, -187500.02235174447, 33629.87591384362, -0.078, 0.976, 0.1, 192.0, 0.0, 0.0, 0.0, 0.0, 0.0, 0.0, 0.0, 0.0, 0.0, 1.6989585579868436E9, 0.0, 2023-11-02 16:55:57.986
165.0, -187500.02235174447, 187500.0, 19816.363729997127, 17662.97431742839, 187500.0, 187500.0, -187500.02235174447, 33629.11595453214, -0.078, 0.976, 0.1, 192.0, 0.0, 0.0, 0.0, 0.0, 0.0, 0.0, 0.0, 0.0, 0.0, 1.6989585579868553E9, 0.0, 2023-11-02 16:55:57.986
166.0, -187500.02235174447, 187500.0, 19823.851564389654, 17669.903358209536, 187500.0, 187500.0, -187500.02235174447, 33633.56395167875, -0.078, 0.976, 0.1, 192.0, 0.0, 0.0, 0.0, 0.0, 0.0, 0.0, 0.0, 0.0, 0.0, 1.6989585579868743E9, 0.0, 2023-11-02 16:55:57.986
167.0, -187500.02235174447, 187500.0, 19821.616389944124, 17663.15313138403, 187500.0, 187500.0, -187500.02235174447, 33628.73597487641, -0.084, 0.982, 0.1, 192.0, 253.0, 96.0, 30.0, 176.0, 3.0, 32.0, 0.0, 0.0, 0.0, 1.6989585579868896E9, 0.0, 2023-11-02 16:55:57.986
168.0, -187500.02235174447, 187500.0, 19825.30442777925, 17665.008326173822, 187500.0, 187500.0, -187500.02235174447, 33631.46288769995, -0.084, 0.982, 0.1, 192.0, 0.0, 0.0, 0.0, 0.0, 0.0, 0.0, 0.0, 0.0, 0.0, 1.6989585579869025E9, 0.0, 2023-11-02 16:55:57.986
169.0, -187500.02235174447, 187500.0, 19827.58430571369, 17676.653585035037, 187500.0, 187500.0, -187500.02235174447, 33634.05569005677, -0.084, 0.982, 0.1, 192.0, 0.0, 0.0, 0.0, 0.0, 0.0, 0.0, 0.0, 0.0, 0.0, 1.698958557986914E9, 0.0, 2023-11-02 16:55:57.986
170.0, -187500.02235174447, 187500.0, 19830.87001214862, 17682.375631615596, 187500.0, 187500.0, -187500.02235174447, 33638.52603894783, -0.084, 0.982, 0.1, 192.0, 0.0, 0.0, 0.0, 0.0, 0.0, 0.0, 0.0, 0.0, 0.0, 1.6989585579869285E9, 0.0, 2023-11-02 16:55:57.986
189.0, -187500.02235174447, 187500.0, 19808.473564204403, 17685.661338050526, 187500.0, 187500.0, -187500.02235174447, 33622.499838173375, -0.084, 0.982, 0.1, 192.0, 0.0, 0.0, 0.0, 0.0, 0.0, 0.0, 0.0, 0.0, 0.0, 1.698958557987095E9, 0.0, 2023-11-02 16:55:57.987
190.0, -187500.02235174447, 187500.0, 19805.67959614749, 17686.845980506656, 187500.0, 187500.0, -187500.02235174447, 33620.91286431705, -0.084, 0.982, 0.1, 192.0, 0.0, 0.0, 0.0, 0.0, 0.0, 0.0, 0.0, 0.0, 0.0, 1.6989585579871075E9, 0.0, 2023-11-02 16:55:57.987
191.0, -187500.02235174447, 187500.0, 19806.30544499224, 17677.637061791072, 187500.0, 187500.0, -187500.02235174447, 33619.46000092745, -0.084, 0.982, 0.1, 192.0, 0.0, 0.0, 0.0, 0.0, 0.0, 0.0, 0.0, 0.0, 0.0, 1.6989585579871182E9, 0.0, 2023-11-02 16:55:57.987
192.0, -187500.02235174447, 187500.0, 19808.07123280421, 17667.936404697466, 187500.0, 187500.0, -187500.02235174447, 33617.9847857934, -0.084, 0.982, 0.1, 192.0, 0.0, 0.0, 0.0, 0.0, 0.0, 0.0, 0.0, 0.0, 0.0, 1.6989585579871705E9, 0.0, 2023-11-02 16:55:57.987
193.0, -187500.02235174447, 187500.0, 19805.16550602502, 17672.049125677244, 187500.0, 187500.0, -187500.02235174447, 33614.56496889174, -0.084, 0.982, 0.1, 192.0, 0.0, 0.0, 0.0, 0.0, 0.0, 0.0, 0.0, 0.0, 0.0, 1.6989585579872003E9, 0.0, 2023-11-02 16:55:57.987
194.0, -187500.02235174447, 187500.0, 19802.43859320147, 17679.425201347494, 187500.0, 187500.0, -187500.02235174447, 33613.201512479965, -0.084, 0.982, 0.1, 192.0, 0.0, 0.0, 0.0, 0.0, 0.0, 0.0, 0.0, 0.0, 0.0, 1.6989585579872117E9, 0.0, 2023-11-02 16:55:57.987
195.0, -187500.02235174447, 187500.0, 19804.405546713537, 17687.717698540415, 187500.0, 187500.0, -187500.02235174447, 33616.196646236975, -0.084, 0.982, 0.1, 192.0, 0.0, 0.0, 0.0, 0.0, 0.0, 0.0, 0.0, 0.0, 0.0, 1.6989585579872236E9, 0.0, 2023-11-02 16:55:57.987
196.0, -187500.02235174447, 187500.0, 19810.909904350032, 17694.624387577103, 187500.0, 187500.0, -187500.02235174447, 33623.2374457404, -0.084, 0.982, 0.1, 192.0, 0.0, 0.0, 0.0, 0.0, 0.0, 0.0, 0.0, 0.0, 0.0, 1.698958557987255E9, 0.0, 2023-11-02 16:55:57.987
197.0, -187500.02235174447, 187500.0, 19807.40068047055, 17700.435841135484, 187500.0, 187500.0, -187500.02235174447, 33619.57175964973, -0.094, 0.982, 0.098, 192.0, 253.0, 16.0, 30.0, 176.0, 3.0, 16.0, 0.0, 0.0, 0.0, 1.6989585579872673E9, 0.0, 2023-11-02 16:55:57.987
198.0, -187500.02235174447, 187500.0, 19813.34624449566, 17706.850791794157, 187500.0, 187500.0, -187500.02235174447, 33625.38321320811, -0.094, 0.982, 0.098, 192.0, 0.0, 0.0, 0.0, 0.0, 0.0, 0.0, 0.0, 0.0, 0.0, 1.6989585579872825E9, 0.0, 2023-11-02 16:55:57.987
199.0, -187500.02235174447, 187500.0, 19816.788413141778, 17710.78469881829, 187500.0, 187500.0, -187500.02235174447, 33631.08290804421, -0.094, 0.982, 0.098, 192.0, 0.0, 0.0, 0.0, 0.0, 0.0, 0.0, 0.0, 0.0, 0.0, 1.6989585579872928E9, 0.0, 2023-11-02 16:55:57.987
200.0, -187500.02235174447, 187500.0, 19811.53575319478, 17702.045166736265, 187500.0, 187500.0, -187500.02235174447, 33627.28311148681, -0.094, 0.982, 0.098, 192.0, 0.0, 0.0, 0.0, 0.0, 0.0, 0.0, 0.0, 0.0, 0.0, 1.698958557987304E9, 0.0, 2023-11-02 16:55:57.987
201.0, -187500.02235174447, 187500.0, 19806.841886859165, 17690.69048055297, 187500.0, 187500.0, -187500.02235174447, 33619.72822186092, -0.094, 0.982, 0.098, 192.0, 0.0, 0.0, 0.0, 0.0, 0.0, 0.0, 0.0, 0.0, 0.0, 1.6989585579873145E9, 0.0, 2023-11-02 16:55:57.987
202.0, -187500.02235174447, 187500.0, 19817.749538153355, 17704.615617348627, 187500.0, 187500.0, -187500.02235174447, 33629.31712023224, -0.094, 0.982, 0.098, 192.0, 0.0, 0.0, 0.0, 0.0, 0.0, 0.0, 0.0, 0.0, 0.0, 1.698958557987332E9, 0.0, 2023-11-02 16:55:57.987
203.0, -187500.02235174447, 187500.0, 19817.123689308606, 17710.69529184047, 187500.0, 187500.0, -187500.02235174447, 33629.94296907699, -0.094, 0.982, 0.098, 192.0, 0.0, 0.0, 0.0, 0.0, 0.0, 0.0, 0.0, 0.0, 0.0, 1.6989585579873438E9, 0.0, 2023-11-02 16:55:57.987
204.0, -187500.02235174447, 187500.0, 19816.408433486038, 17703.676844081503, 187500.0, 187500.0, -187500.02235174447, 33629.048899298774, -0.094, 0.982, 0.098, 192.0, 0.0, 0.0, 0.0, 0.0, 0.0, 0.0, 0.0, 0.0, 0.0, 1.6989585579873753E9, 0.0, 2023-11-02 16:55:57.987
205.0, -187500.02235174447, 187500.0, 19814.061500318232, 17704.526210370805, 187500.0, 187500.0, -187500.02235174447, 33627.05959404226, -0.094, 0.982, 0.098, 192.0, 0.0, 0.0, 0.0, 0.0, 0.0, 0.0, 0.0, 0.0, 0.0, 1.6989585579873872E9, 0.0, 2023-11-02 16:55:57.987
206.0, -187500.02235174447, 187500.0, 19808.54061943777, 17705.912018527033, 187500.0, 187500.0, -187500.02235174447, 33623.2374457404, -0.094, 0.982, 0.098, 192.0, 0.0, 0.0, 0.0, 0.0, 0.0, 0.0, 0.0, 0.0, 0.0, 1.6989585579874012E9, 0.0, 2023-11-02 16:55:57.987
207.0, -187500.02235174447, 187500.0, 19798.705851877436, 17705.330873171195, 187500.0, 187500.0, -187500.02235174447, 33616.30840495925, -0.094, 0.982, 0.1, 192.0, 253.0, 16.0, 30.0, 176.0, 3.0, 32.0, 0.0, 0.0, 0.0, 1.698958557987454E9, 0.0, 2023-11-02 16:55:57.987
208.0, -187500.02235174447, 187500.0, 19799.421107700004, 17705.800259804757, 187500.0, 187500.0, -187500.02235174447, 33620.06349802775, -0.094, 0.982, 0.1, 192.0, 0.0, 0.0, 0.0, 0.0, 0.0, 0.0, 0.0, 0.0, 0.0, 1.698958557987486E9, 0.0, 2023-11-02 16:55:57.987
209.0, -187500.02235174447, 187500.0, 19802.34918622365, 17711.20938196294, 187500.0, 187500.0, -187500.02235174447, 33623.72918411841, -0.094, 0.982, 0.1, 192.0, 0.0, 0.0, 0.0, 0.0, 0.0, 0.0, 0.0, 0.0, 0.0, 1.698958557987497E9, 0.0, 2023-11-02 16:55:57.987
210.0, -187500.02235174447, 187500.0, 19804.047918802255, 17720.03832102279, 187500.0, 187500.0, -187500.02235174447, 33623.483314929406, -0.094, 0.982, 0.1, 192.0, 0.0, 0.0, 0.0, 0.0, 0.0, 0.0, 0.0, 0.0, 0.0, 1.6989585579875133E9, 0.0, 2023-11-02 16:55:57.987
211.0, -187500.02235174447, 187500.0, 19798.34822396615, 17728.0849490267, 187500.0, 187500.0, -187500.02235174447, 33616.64368112608, -0.094, 0.982, 0.1, 192.0, 0.0, 0.0, 0.0, 0.0, 0.0, 0.0, 0.0, 0.0, 0.0, 1.6989585579875321E9, 0.0, 2023-11-02 16:55:57.987
212.0, -187500.02235174447, 187500.0, 19795.218979742407, 17719.591286133684, 187500.0, 187500.0, -187500.02235174447, 33612.46390491294, -0.094, 0.982, 0.1, 192.0, 0.0, 0.0, 0.0, 0.0, 0.0, 0.0, 0.0, 0.0, 0.0, 1.6989585579875438E9, 0.0, 2023-11-02 16:55:57.987
213.0, -187500.02235174447, 187500.0, 19795.73306986488, 17707.387233661084, 187500.0, 187500.0, -187500.02235174447, 33612.59801537967, -0.094, 0.982, 0.1, 192.0, 0.0, 0.0, 0.0, 0.0, 0.0, 0.0, 0.0, 0.0, 0.0, 1.6989585579875548E9, 0.0, 2023-11-02 16:55:57.987
214.0, -187500.02235174447, 187500.0, 19797.58826465467, 17707.096660983167, 187500.0, 187500.0, -187500.02235174447, 33614.810838080746, -0.094, 0.982, 0.1, 192.0, 0.0, 0.0, 0.0, 0.0, 0.0, 0.0, 0.0, 0.0, 0.0, 1.6989585579875686E9, 0.0, 2023-11-02 16:55:57.987
215.0, -187500.02235174447, 187500.0, 19792.067383774207, 17705.68850108248, 187500.0, 187500.0, -187500.02235174447, 33609.44641941147, -0.094, 0.982, 0.1, 192.0, 0.0, 0.0, 0.0, 0.0, 0.0, 0.0, 0.0, 0.0, 0.0, 1.6989585579875832E9, 0.0, 2023-11-02 16:55:57.987
216.0, -187500.02235174447, 187500.0, 19789.74280235086, 17702.134573714087, 187500.0, 187500.0, -187500.02235174447, 33607.814742066235, -0.094, 0.982, 0.1, 192.0, 0.0, 0.0, 0.0, 0.0, 0.0, 0.0, 0.0, 0.0, 0.0, 1.698958557987596E9, 0.0, 2023-11-02 16:55:57.987
217.0, -187500.02235174447, 187500.0, 19789.072250017198, 17700.815820791224, 187500.0, 187500.0, -187500.02235174447, 33606.54069263228, -0.084, 0.98, 0.10400000000000001, 192.0, 253.0, 96.0, 30.0, 160.0, 3.0, 64.0, 0.0, 0.0, 0.0, 1.698958557987609E9, 0.0, 2023-11-02 16:55:57.987
218.0, -187500.02235174447, 187500.0, 19788.73697385037, 17703.475678381405, 187500.0, 187500.0, -187500.02235174447, 33604.79725656477, -0.084, 0.98, 0.10400000000000001, 192.0, 0.0, 0.0, 0.0, 0.0, 0.0, 0.0, 0.0, 0.0, 0.0, 1.6989585579876227E9, 0.0, 2023-11-02 16:55:57.987
219.0, -187500.02235174447, 187500.0, 19788.781677339277, 17708.37071041712, 187500.0, 187500.0, -187500.02235174447, 33605.9818990209, -0.084, 0.98, 0.10400000000000001, 192.0, 0.0, 0.0, 0.0, 0.0, 0.0, 0.0, 0.0, 0.0, 0.0, 1.698958557987635E9, 0.0, 2023-11-02 16:55:57.987
220.0, -187500.02235174447, 187500.0, 19789.943968050953, 17708.191896461474, 187500.0, 187500.0, -187500.02235174447, 33607.30065194376, -0.084, 0.98, 0.10400000000000001, 192.0, 0.0, 0.0, 0.0, 0.0, 0.0, 0.0, 0.0, 0.0, 0.0, 1.698958557987647E9, 0.0, 2023-11-02 16:55:57.987
221.0, -187500.02235174447, 187500.0, 19790.502761662337, 17702.872181281113, 187500.0, 187500.0, -187500.02235174447, 33606.54069263228, -0.084, 0.98, 0.10400000000000001, 192.0, 0.0, 0.0, 0.0, 0.0, 0.0, 0.0, 0.0, 0.0, 0.0, 1.6989585579876645E9, 0.0, 2023-11-02 16:55:57.987
222.0, -187500.02235174447, 187500.0, 19796.001290798344, 17707.521344127817, 187500.0, 187500.0, -187500.02235174447, 33611.726297345915, -0.084, 0.98, 0.10400000000000001, 192.0, 0.0, 0.0, 0.0, 0.0, 0.0, 0.0, 0.0, 0.0, 0.0, 1.6989585579877057E9, 0.0, 2023-11-02 16:55:57.987
223.0, -187500.02235174447, 187500.0, 19795.330738464683, 17718.876030311112, 187500.0, 187500.0, -187500.02235174447, 33612.30744270175, -0.084, 0.98, 0.10400000000000001, 192.0, 0.0, 0.0, 0.0, 0.0, 0.0, 0.0, 0.0, 0.0, 0.0, 1.69895855798772E9, 0.0, 2023-11-02 16:55:57.987
224.0, -187500.02235174447, 187500.0, 19788.222883727896, 17713.444556408474, 187500.0, 187500.0, -187500.02235174447, 33604.4843321424, -0.084, 0.98, 0.10400000000000001, 192.0, 0.0, 0.0, 0.0, 0.0, 0.0, 0.0, 0.0, 0.0, 0.0, 1.698958557987734E9, 0.0, 2023-11-02 16:55:57.987
225.0, -187500.02235174447, 187500.0, 19790.34629945115, 17709.9800360179, 187500.0, 187500.0, -187500.02235174447, 33606.31717518773, -0.084, 0.98, 0.10400000000000001, 192.0, 0.0, 0.0, 0.0, 0.0, 0.0, 0.0, 0.0, 0.0, 0.0, 1.6989585579877472E9, 0.0, 2023-11-02 16:55:57.987
226.0, -187500.02235174447, 187500.0, 19789.58634013967, 17707.811916805735, 187500.0, 187500.0, -187500.02235174447, 33606.54069263228, -0.084, 0.98, 0.10400000000000001, 192.0, 0.0, 0.0, 0.0, 0.0, 0.0, 0.0, 0.0, 0.0, 0.0, 1.6989585579877605E9, 0.0, 2023-11-02 16:55:57.987
227.0, -187500.02235174447, 187500.0, 19790.703927362436, 17708.21424820593, 187500.0, 187500.0, -187500.02235174447, 33607.50181764386, -0.08600000000000001, 0.98, 0.11, 192.0, 253.0, 80.0, 30.0, 160.0, 3.0, 112.0, 0.0, 0.0, 0.0, 1.6989585579877737E9, 0.0, 2023-11-02 16:55:57.987
228.0, -187500.02235174447, 187500.0, 19797.744726865858, 17715.277399453807, 187500.0, 187500.0, -187500.02235174447, 33615.302576458766, -0.08600000000000001, 0.98, 0.11, 192.0, 0.0, 0.0, 0.0, 0.0, 0.0, 0.0, 0.0, 0.0, 0.0, 1.698958557987788E9, 0.0, 2023-11-02 16:55:57.987
229.0, -187500.02235174447, 187500.0, 19805.277264747296, 17722.832289079703, 187500.0, 187500.0, -187500.02235174447, 33624.89147483009, -0.08600000000000001, 0.98, 0.11, 192.0, 0.0, 0.0, 0.0, 0.0, 0.0, 0.0, 0.0, 0.0, 0.0, 1.6989585579878073E9, 0.0, 2023-11-02 16:55:57.987
230.0, -187500.02235174447, 187500.0, 19798.504686177337, 17719.859507067147, 187500.0, 187500.0, -187500.02235174447, 33620.264663727845, -0.08600000000000001, 0.98, 0.11, 192.0, 0.0, 0.0, 0.0, 0.0, 0.0, 0.0, 0.0, 0.0, 0.0, 1.698958557987824E9, 0.0, 2023-11-02 16:55:57.987
231.0, -187500.02235174447, 187500.0, 19793.00615704133, 17719.188954733487, 187500.0, 187500.0, -187500.02235174447, 33615.8837218146, -0.08600000000000001, 0.98, 0.11, 192.0, 0.0, 0.0, 0.0, 0.0, 0.0, 0.0, 0.0, 0.0, 0.0, 1.6989585579878373E9, 0.0, 2023-11-02 16:55:57.987
232.0, -187500.02235174447, 187500.0, 19793.229674485883, 17724.151042002566, 187500.0, 187500.0, -187500.02235174447, 33617.76126834885, -0.08600000000000001, 0.98, 0.11, 192.0, 0.0, 0.0, 0.0, 0.0, 0.0, 0.0, 0.0, 0.0, 0.0, 1.6989585579878569E9, 0.0, 2023-11-02 16:55:57.987
233.0, -187500.02235174447, 187500.0, 19799.175238510998, 17727.682617626502, 187500.0, 187500.0, -187500.02235174447, 33623.058631784756, -0.08600000000000001, 0.98, 0.11, 192.0, 0.0, 0.0, 0.0, 0.0, 0.0, 0.0, 0.0, 0.0, 0.0, 1.6989585579878695E9, 0.0, 2023-11-02 16:55:57.987
234.0, -187500.02235174447, 187500.0, 19796.358918709626, 17729.51546067184, 187500.0, 187500.0, -187500.02235174447, 33619.72822186092, -0.08600000000000001, 0.98, 0.11, 192.0, 0.0, 0.0, 0.0, 0.0, 0.0, 0.0, 0.0, 0.0, 0.0, 1.6989585579878824E9, 0.0, 2023-11-02 16:55:57.987
235.0, -187500.02235174447, 187500.0, 19790.413354684515, 17730.878917083613, 187500.0, 187500.0, -187500.02235174447, 33614.587320636194, -0.08600000000000001, 0.98, 0.11, 192.0, 0.0, 0.0, 0.0, 0.0, 0.0, 0.0, 0.0, 0.0, 0.0, 1.6989585579878948E9, 0.0, 2023-11-02 16:55:57.987
236.0, -187500.02235174447, 187500.0, 19783.43961041446, 17729.11312927164, 187500.0, 187500.0, -187500.02235174447, 33607.546521132776, -0.08600000000000001, 0.98, 0.11, 192.0, 0.0, 0.0, 0.0, 0.0, 0.0, 0.0, 0.0, 0.0, 0.0, 1.6989585579879117E9, 0.0, 2023-11-02 16:55:57.987
237.0, -187500.02235174447, 187500.0, 19779.908034790522, 17726.676789126013, 187500.0, 187500.0, -187500.02235174447, 33602.629137352604, -0.084, 0.978, 0.114, 192.0, 253.0, 96.0, 30.0, 144.0, 3.0, 144.0, 0.0, 0.0, 0.0, 1.6989585579879231E9, 0.0, 2023-11-02 16:55:57.987
238.0, -187500.02235174447, 187500.0, 19773.895415532043, 17713.489259897382, 187500.0, 187500.0, -187500.02235174447, 33596.638869838585, -0.084, 0.978, 0.114, 192.0, 0.0, 0.0, 0.0, 0.0, 0.0, 0.0, 0.0, 0.0, 0.0, 1.698958557987988E9, 0.0, 2023-11-02 16:55:57.987
239.0, -187500.02235174447, 187500.0, 19771.48142713087, 17713.69042559748, 187500.0, 187500.0, -187500.02235174447, 33593.487273870385, -0.084, 0.978, 0.114, 192.0, 0.0, 0.0, 0.0, 0.0, 0.0, 0.0, 0.0, 0.0, 0.0, 1.698958557988004E9, 0.0, 2023-11-02 16:55:57.988
240.0, -187500.02235174447, 187500.0, 19772.666069587, 17726.006236792357, 187500.0, 187500.0, -187500.02235174447, 33593.911957015036, -0.084, 0.978, 0.114, 192.0, 0.0, 0.0, 0.0, 0.0, 0.0, 0.0, 0.0, 0.0, 0.0, 1.6989585579880161E9, 0.0, 2023-11-02 16:55:57.988
241.0, -187500.02235174447, 187500.0, 19776.35410742213, 17732.667056640035, 187500.0, 187500.0, -187500.02235174447, 33597.91291927254, -0.084, 0.978, 0.114, 192.0, 0.0, 0.0, 0.0, 0.0, 0.0, 0.0, 0.0, 0.0, 0.0, 1.6989585579880276E9, 0.0, 2023-11-02 16:55:57.988
242.0, -187500.02235174447, 187500.0, 19781.04797375774, 17733.672885140524, 187500.0, 187500.0, -187500.02235174447, 33603.29968968626, -0.084, 0.978, 0.114, 192.0, 0.0, 0.0, 0.0, 0.0, 0.0, 0.0, 0.0, 0.0, 0.0, 1.6989585579880402E9, 0.0, 2023-11-02 16:55:57.988
243.0, -187500.02235174447, 187500.0, 19777.069363244696, 17733.583478162705, 187500.0, 187500.0, -187500.02235174447, 33599.99163150688, -0.084, 0.978, 0.114, 192.0, 0.0, 0.0, 0.0, 0.0, 0.0, 0.0, 0.0, 0.0, 0.0, 1.6989585579880548E9, 0.0, 2023-11-02 16:55:57.988
244.0, -187500.02235174447, 187500.0, 19777.359935922617, 17742.434768967007, 187500.0, 187500.0, -187500.02235174447, 33599.72341057342, -0.084, 0.978, 0.114, 192.0, 0.0, 0.0, 0.0, 0.0, 0.0, 0.0, 0.0, 0.0, 0.0, 1.698958557988068E9, 0.0, 2023-11-02 16:55:57.988
245.0, -187500.02235174447, 187500.0, 19779.572758623694, 17742.70298990047, 187500.0, 187500.0, -187500.02235174447, 33600.01398325133, -0.084, 0.978, 0.114, 192.0, 0.0, 0.0, 0.0, 0.0, 0.0, 0.0, 0.0, 0.0, 0.0, 1.6989585579880824E9, 0.0, 2023-11-02 16:55:57.988
246.0, -187500.02235174447, 187500.0, 19780.936215035465, 17742.770045133835, 187500.0, 187500.0, -187500.02235174447, 33601.60095710766, -0.084, 0.978, 0.114, 192.0, 0.0, 0.0, 0.0, 0.0, 0.0, 0.0, 0.0, 0.0, 0.0, 1.6989585579880967E9, 0.0, 2023-11-02 16:55:57.988
247.0, -187500.02235174447, 187500.0, 19781.24913945784, 17745.854585868667, 187500.0, 187500.0, -187500.02235174447, 33602.69619258597, -0.084, 0.978, 0.11, 192.0, 253.0, 96.0, 30.0, 144.0, 3.0, 112.0, 0.0, 0.0, 0.0, 1.698958557988109E9, 0.0, 2023-11-02 16:55:57.988
248.0, -187500.02235174447, 187500.0, 19773.381325409573, 17755.08585632871, 187500.0, 187500.0, -187500.02235174447, 33597.42118089452, -0.084, 0.978, 0.11, 192.0, 0.0, 0.0, 0.0, 0.0, 0.0, 0.0, 0.0, 0.0, 0.0, 1.6989585579881237E9, 0.0, 2023-11-02 16:55:57.988
249.0, -187500.02235174447, 187500.0, 19775.661203344014, 17758.863301141657, 187500.0, 187500.0, -187500.02235174447, 33602.11504723013, -0.084, 0.978, 0.11, 192.0, 0.0, 0.0, 0.0, 0.0, 0.0, 0.0, 0.0, 0.0, 0.0, 1.6989585579881465E9, 0.0, 2023-11-02 16:55:57.988
250.0, -187500.02235174447, 187500.0, 19780.28801444626, 17759.489149986406, 187500.0, 187500.0, -187500.02235174447, 33608.61940486663, -0.084, 0.978, 0.11, 192.0, 0.0, 0.0, 0.0, 0.0, 0.0, 0.0, 0.0, 0.0, 0.0, 1.6989585579881597E9, 0.0, 2023-11-02 16:55:57.988
251.0, -187500.02235174447, 187500.0, 19781.271491202297, 17765.635879711615, 187500.0, 187500.0, -187500.02235174447, 33608.932329289004, -0.084, 0.978, 0.11, 192.0, 0.0, 0.0, 0.0, 0.0, 0.0, 0.0, 0.0, 0.0, 0.0, 1.698958557988173E9, 0.0, 2023-11-02 16:55:57.988
252.0, -187500.02235174447, 187500.0, 19781.651470858036, 17774.57657749374, 187500.0, 187500.0, -187500.02235174447, 33609.26760545583, -0.084, 0.978, 0.11, 192.0, 0.0, 0.0, 0.0, 0.0, 0.0, 0.0, 0.0, 0.0, 0.0, 1.6989585579881873E9, 0.0, 2023-11-02 16:55:57.988
253.0, -187500.02235174447, 187500.0, 19779.975090023887, 17775.98473739442, 187500.0, 187500.0, -187500.02235174447, 33608.32883218871, -0.084, 0.978, 0.11, 192.0, 0.0, 0.0, 0.0, 0.0, 0.0, 0.0, 0.0, 0.0, 0.0, 1.6989585579882915E9, 0.0, 2023-11-02 16:55:57.988
254.0, -187500.02235174447, 187500.0, 19779.729220834877, 17772.743734448402, 187500.0, 187500.0, -187500.02235174447, 33609.37936417811, -0.084, 0.978, 0.11, 192.0, 0.0, 0.0, 0.0, 0.0, 0.0, 0.0, 0.0, 0.0, 0.0, 1.698958557988312E9, 0.0, 2023-11-02 16:55:57.988
255.0, -187500.02235174447, 187500.0, 19779.908034790522, 17770.553263491784, 187500.0, 187500.0, -187500.02235174447, 33611.94981479047, -0.084, 0.978, 0.11, 192.0, 0.0, 0.0, 0.0, 0.0, 0.0, 0.0, 0.0, 0.0, 0.0, 1.6989585579883316E9, 0.0, 2023-11-02 16:55:57.988
0.0, -187500.02235174447, 187500.0, 19780.466828401903, 17777.102324617186, 187500.0, 187500.0, -187500.02235174447, 33613.35797469115, -0.084, 0.978, 0.11, 192.0, 0.0, 0.0, 0.0, 0.0, 0.0, 0.0, 0.0, 0.0, 0.0, 1.6989585579883497E9, 0.0, 2023-11-02 16:55:57.988
1.0, -187500.02235174447, 187500.0, 19771.86140678661, 17768.22868206843, 187500.0, 187500.0, -187500.02235174447, 33606.495989143375, -0.088, 0.982, 0.106, 192.0, 253.0, 64.0, 30.0, 176.0, 3.0, 80.0, 0.0, 0.0, 0.0, 1.6989585579883704E9, 0.0, 2023-11-02 16:55:57.988
2.0, -187500.02235174447, 187500.0, 19773.604842854125, 17750.861376626657, 187500.0, 187500.0, -187500.02235174447, 33607.50181764386, -0.088, 0.982, 0.106, 192.0, 0.0, 0.0, 0.0, 0.0, 0.0, 0.0, 0.0, 0.0, 0.0, 1.6989585579884217E9, 0.0, 2023-11-02 16:55:57.988
3.0, -187500.02235174447, 187500.0, 19778.365764423106, 17739.484338698905, 187500.0, 187500.0, -187500.02235174447, 33610.608710123146, -0.088, 0.982, 0.106, 192.0, 0.0, 0.0, 0.0, 0.0, 0.0, 0.0, 0.0, 0.0, 0.0, 1.6989585579884849E9, 0.0, 2023-11-02 16:55:57.988
4.0, -187500.02235174447, 187500.0, 19778.455171400925, 17726.36386470364, 187500.0, 187500.0, -187500.02235174447, 33610.966338034435, -0.088, 0.982, 0.106, 192.0, 0.0, 0.0, 0.0, 0.0, 0.0, 0.0, 0.0, 0.0, 0.0, 1.698958557988506E9, 0.0, 2023-11-02 16:55:57.988
5.0, -187500.02235174447, 187500.0, 19779.8186278127, 17715.16564073153, 187500.0, 187500.0, -187500.02235174447, 33613.760306091346, -0.088, 0.982, 0.106, 192.0, 0.0, 0.0, 0.0, 0.0, 0.0, 0.0, 0.0, 0.0, 0.0, 1.698958557988537E9, 0.0, 2023-11-02 16:55:57.988
6.0, -187500.02235174447, 187500.0, 19770.83322654167, 17693.819724776713, 187500.0, 187500.0, -187500.02235174447, 33607.188893221486, -0.088, 0.982, 0.106, 192.0, 0.0, 0.0, 0.0, 0.0, 0.0, 0.0, 0.0, 0.0, 0.0, 1.6989585579885492E9, 0.0, 2023-11-02 16:55:57.988
7.0, -187500.02235174447, 187500.0, 19774.275395187786, 17670.238634376365, 187500.0, 187500.0, -187500.02235174447, 33612.12862874611, -0.088, 0.982, 0.106, 192.0, 0.0, 0.0, 0.0, 0.0, 0.0, 0.0, 0.0, 0.0, 0.0, 1.6989585579885592E9, 0.0, 2023-11-02 16:55:57.988
8.0, -187500.02235174447, 187500.0, 19774.834188799166, 17651.843148689648, 187500.0, 187500.0, -187500.02235174447, 33613.402678180064, -0.088, 0.982, 0.106, 192.0, 0.0, 0.0, 0.0, 0.0, 0.0, 0.0, 0.0, 0.0, 0.0, 1.6989585579885693E9, 0.0, 2023-11-02 16:55:57.988
9.0, -187500.02235174447, 187500.0, 19773.090752731652, 17635.884003148556, 187500.0, 187500.0, -187500.02235174447, 33612.352146190664, -0.088, 0.982, 0.106, 192.0, 0.0, 0.0, 0.0, 0.0, 0.0, 0.0, 0.0, 0.0, 0.0, 1.6989585579885793E9, 0.0, 2023-11-02 16:55:57.988
10.0, -187500.02235174447, 187500.0, 19777.672860344992, 17621.802404141716, 187500.0, 187500.0, -187500.02235174447, 33618.61063463815, -0.088, 0.982, 0.106, 192.0, 0.0, 0.0, 0.0, 0.0, 0.0, 0.0, 0.0, 0.0, 0.0, 1.6989585579885895E9, 0.0, 2023-11-02 16:55:57.988
11.0, -187500.02235174447, 187500.0, 19785.38421218207, 17602.646959143516, 187500.0, 187500.0, -187500.02235174447, 33627.77484986482, -0.08600000000000001, 0.978, 0.10400000000000001, 192.0, 253.0, 80.0, 30.0, 144.0, 3.0, 64.0, 0.0, 0.0, 0.0, 1.6989585579886005E9, 0.0, 2023-11-02 16:55:57.988
12.0, -187500.02235174447, 187500.0, 19784.132514492576, 17585.592578124117, 187500.0, 187500.0, -187500.02235174447, 33627.663091142545, -0.08600000000000001, 0.978, 0.10400000000000001, 192.0, 0.0, 0.0, 0.0, 0.0, 0.0, 0.0, 0.0, 0.0, 0.0, 1.6989585579886615E9, 0.0, 2023-11-02 16:55:57.988
13.0, -187500.02235174447, 187500.0, 19775.460037643916, 17571.24275818381, 187500.0, 187500.0, -187500.02235174447, 33621.96339630645, -0.08600000000000001, 0.978, 0.10400000000000001, 192.0, 0.0, 0.0, 0.0, 0.0, 0.0, 0.0, 0.0, 0.0, 0.0, 1.6989585579886768E9, 0.0, 2023-11-02 16:55:57.988
14.0, -187500.02235174447, 187500.0, 19782.05380225823, 17560.357458634076, 187500.0, 187500.0, -187500.02235174447, 33630.70292838847, -0.08600000000000001, 0.978, 0.10400000000000001, 192.0, 0.0, 0.0, 0.0, 0.0, 0.0, 0.0, 0.0, 0.0, 0.0, 1.6989585579886892E9, 0.0, 2023-11-02 16:55:57.988
15.0, -187500.02235174447, 187500.0, 19787.127648249585, 17547.304039872175, 187500.0, 187500.0, -187500.02235174447, 33636.60378892467, -0.08600000000000001, 0.978, 0.10400000000000001, 192.0, 0.0, 0.0, 0.0, 0.0, 0.0, 0.0, 0.0, 0.0, 0.0, 1.6989585579886987E9, 0.0, 2023-11-02 16:55:57.988
16.0, -187500.02235174447, 187500.0, 19781.7185260914, 17535.345856588585, 187500.0, 187500.0, -187500.02235174447, 33632.491067944895, -0.08600000000000001, 0.978, 0.10400000000000001, 192.0, 0.0, 0.0, 0.0, 0.0, 0.0, 0.0, 0.0, 0.0, 0.0, 1.6989585579887104E9, 0.0, 2023-11-02 16:55:57.988
17.0, -187500.02235174447, 187500.0, 19778.142246978554, 17526.85219369557, 187500.0, 187500.0, -187500.02235174447, 33627.75249812037, -0.08600000000000001, 0.978, 0.10400000000000001, 192.0, 0.0, 0.0, 0.0, 0.0, 0.0, 0.0, 0.0, 0.0, 0.0, 1.6989585579887238E9, 0.0, 2023-11-02 16:55:57.988
18.0, -187500.02235174447, 187500.0, 19771.369668408595, 17516.81626043514, 187500.0, 187500.0, -187500.02235174447, 33619.839980583194, -0.08600000000000001, 0.978, 0.10400000000000001, 192.0, 0.0, 0.0, 0.0, 0.0, 0.0, 0.0, 0.0, 0.0, 0.0, 1.6989585579887345E9, 0.0, 2023-11-02 16:55:57.988
19.0, -187500.02235174447, 187500.0, 19771.123799219586, 17507.294417297177, 187500.0, 187500.0, -187500.02235174447, 33620.01879453883, -0.08600000000000001, 0.978, 0.10400000000000001, 192.0, 0.0, 0.0, 0.0, 0.0, 0.0, 0.0, 0.0, 0.0, 0.0, 1.6989585579887505E9, 0.0, 2023-11-02 16:55:57.988
20.0, -187500.02235174447, 187500.0, 19774.498912632338, 17502.667606194926, 187500.0, 187500.0, -187500.02235174447, 33623.37155620713, -0.08600000000000001, 0.978, 0.10400000000000001, 192.0, 0.0, 0.0, 0.0, 0.0, 0.0, 0.0, 0.0, 0.0, 0.0, 1.6989585579887607E9, 0.0, 2023-11-02 16:55:57.988
21.0, -187500.02235174447, 187500.0, 19771.01204049731, 17510.60247547656, 187500.0, 187500.0, -187500.02235174447, 33619.16942824953, -0.09, 0.982, 0.106, 192.0, 253.0, 48.0, 30.0, 176.0, 3.0, 80.0, 0.0, 0.0, 0.0, 1.6989585579887717E9, 0.0, 2023-11-02 16:55:57.988
22.0, -187500.02235174447, 187500.0, 19765.87113927259, 17508.501411497764, 187500.0, 187500.0, -187500.02235174447, 33614.85554156966, -0.09, 0.982, 0.106, 192.0, 0.0, 0.0, 0.0, 0.0, 0.0, 0.0, 0.0, 0.0, 0.0, 1.6989585579887843E9, 0.0, 2023-11-02 16:55:57.988
23.0, -187500.02235174447, 187500.0, 19761.28903165925, 17502.198219561367, 187500.0, 187500.0, -187500.02235174447, 33610.541654889785, -0.09, 0.982, 0.106, 192.0, 0.0, 0.0, 0.0, 0.0, 0.0, 0.0, 0.0, 0.0, 0.0, 1.6989585579887953E9, 0.0, 2023-11-02 16:55:57.988
24.0, -187500.02235174447, 187500.0, 19763.837130527154, 17494.911550868936, 187500.0, 187500.0, -187500.02235174447, 33613.536788646794, -0.09, 0.982, 0.106, 192.0, 0.0, 0.0, 0.0, 0.0, 0.0, 0.0, 0.0, 0.0, 0.0, 1.6989585579888053E9, 0.0, 2023-11-02 16:55:57.988
25.0, -187500.02235174447, 187500.0, 19761.24432817034, 17497.683167181392, 187500.0, 187500.0, -187500.02235174447, 33611.592186879185, -0.09, 0.982, 0.106, 192.0, 0.0, 0.0, 0.0, 0.0, 0.0, 0.0, 0.0, 0.0, 0.0, 1.6989585579888153E9, 0.0, 2023-11-02 16:55:57.988
26.0, -187500.02235174447, 187500.0, 19762.071342715186, 17505.171001573923, 187500.0, 187500.0, -187500.02235174447, 33612.7321258464, -0.09, 0.982, 0.106, 192.0, 0.0, 0.0, 0.0, 0.0, 0.0, 0.0, 0.0, 0.0, 0.0, 1.6989585579888268E9, 0.0, 2023-11-02 16:55:57.988
27.0, -187500.02235174447, 187500.0, 19763.47950261587, 17509.306074298154, 187500.0, 187500.0, -187500.02235174447, 33614.43085842501, -0.09, 0.982, 0.106, 192.0, 0.0, 0.0, 0.0, 0.0, 0.0, 0.0, 0.0, 0.0, 0.0, 1.6989585579888477E9, 0.0, 2023-11-02 16:55:57.988
28.0, -187500.02235174447, 187500.0, 19763.099522960132, 17507.629693464005, 187500.0, 187500.0, -187500.02235174447, 33612.30744270175, -0.09, 0.982, 0.106, 192.0, 0.0, 0.0, 0.0, 0.0, 0.0, 0.0, 0.0, 0.0, 0.0, 1.6989585579888585E9, 0.0, 2023-11-02 16:55:57.988
29.0, -187500.02235174447, 187500.0, 19769.268604429795, 17521.599533748573, 187500.0, 187500.0, -187500.02235174447, 33617.3365852042, -0.09, 0.982, 0.106, 192.0, 0.0, 0.0, 0.0, 0.0, 0.0, 0.0, 0.0, 0.0, 0.0, 1.69895855798887E9, 0.0, 2023-11-02 16:55:57.988
30.0, -187500.02235174447, 187500.0, 19765.982897994865, 17524.862888439045, 187500.0, 187500.0, -187500.02235174447, 33613.35797469115, -0.094, 0.976, 0.106, 192.0, 253.0, 16.0, 30.0, 128.0, 3.0, 80.0, 0.0, 0.0, 0.0, 1.698958557988882E9, 0.0, 2023-11-02 16:55:57.988
31.0, -187500.02235174447, 187500.0, 19770.073267230186, 17524.527612272217, 187500.0, 187500.0, -187500.02235174447, 33616.487218914895, -0.094, 0.976, 0.106, 192.0, 0.0, 0.0, 0.0, 0.0, 0.0, 0.0, 0.0, 0.0, 0.0, 1.698958557988896E9, 0.0, 2023-11-02 16:55:57.988
32.0, -187500.02235174447, 187500.0, 19765.558214850214, 17520.66076048145, 187500.0, 187500.0, -187500.02235174447, 33610.51930314533, -0.094, 0.976, 0.106, 192.0, 0.0, 0.0, 0.0, 0.0, 0.0, 0.0, 0.0, 0.0, 0.0, 1.6989585579889095E9, 0.0, 2023-11-02 16:55:57.988
33.0, -187500.02235174447, 187500.0, 19759.590299080646, 17524.304094827665, 187500.0, 187500.0, -187500.02235174447, 33604.037297253286, -0.094, 0.976, 0.106, 192.0, 0.0, 0.0, 0.0, 0.0, 0.0, 0.0, 0.0, 0.0, 0.0, 1.6989585579889207E9, 0.0, 2023-11-02 16:55:57.988
34.0, -187500.02235174447, 187500.0, 19758.450360113427, 17535.70348449987, 187500.0, 187500.0, -187500.02235174447, 33603.32204143072, -0.094, 0.976, 0.106, 192.0, 0.0, 0.0, 0.0, 0.0, 0.0, 0.0, 0.0, 0.0, 0.0, 1.698958557988932E9, 0.0, 2023-11-02 16:55:57.988
35.0, -187500.02235174447, 187500.0, 19750.984877465355, 17534.51884204374, 187500.0, 187500.0, -187500.02235174447, 33595.47657912691, -0.094, 0.976, 0.106, 192.0, 0.0, 0.0, 0.0, 0.0, 0.0, 0.0, 0.0, 0.0, 0.0, 1.6989585584665897E9, 0.0, 2023-11-02 16:55:58.466
36.0, -187500.02235174447, 187500.0, 19750.314325131694, 17533.133033887512, 187500.0, 187500.0, -187500.02235174447, 33595.297765171264, -0.094, 0.976, 0.106, 192.0, 0.0, 0.0, 0.0, 0.0, 0.0, 0.0, 0.0, 0.0, 0.0, 1.6989585584667473E9, 0.0, 2023-11-02 16:55:58.466
37.0, -187500.02235174447, 187500.0, 19751.92365073248, 17536.93283044491, 187500.0, 187500.0, -187500.02235174447, 33598.024677994814, -0.094, 0.976, 0.106, 192.0, 0.0, 0.0, 0.0, 0.0, 0.0, 0.0, 0.0, 0.0, 0.0, 1.6989585584667587E9, 0.0, 2023-11-02 16:55:58.466
38.0, -187500.02235174447, 187500.0, 19756.885738001554, 17539.838557224102, 187500.0, 187500.0, -187500.02235174447, 33603.478503641905, -0.094, 0.976, 0.106, 192.0, 0.0, 0.0, 0.0, 0.0, 0.0, 0.0, 0.0, 0.0, 0.0, 1.6989585584667692E9, 0.0, 2023-11-02 16:55:58.466
39.0, -187500.02235174447, 187500.0, 19758.070380457688, 17539.43622582391, 187500.0, 187500.0, -187500.02235174447, 33605.288994942784, -0.094, 0.976, 0.106, 192.0, 0.0, 0.0, 0.0, 0.0, 0.0, 0.0, 0.0, 0.0, 0.0, 1.698958558466781E9, 0.0, 2023-11-02 16:55:58.466
40.0, -187500.02235174447, 187500.0, 19757.824511268678, 17537.156347889468, 187500.0, 187500.0, -187500.02235174447, 33606.09365774318, -0.088, 0.98, 0.10200000000000001, 192.0, 253.0, 64.0, 30.0, 160.0, 3.0, 48.0, 0.0, 0.0, 0.0, 1.6989585584668303E9, 0.0, 2023-11-02 16:55:58.466
41.0, -187500.02235174447, 187500.0, 19759.232671169364, 17546.097045671588, 187500.0, 187500.0, -187500.02235174447, 33607.27830019931, -0.088, 0.98, 0.10200000000000001, 192.0, 0.0, 0.0, 0.0, 0.0, 0.0, 0.0, 0.0, 0.0, 0.0, 1.6989585584668427E9, 0.0, 2023-11-02 16:55:58.466
42.0, -187500.02235174447, 187500.0, 19763.39009563805, 17551.99790620779, 187500.0, 187500.0, -187500.02235174447, 33611.34631769017, -0.088, 0.98, 0.10200000000000001, 192.0, 0.0, 0.0, 0.0, 0.0, 0.0, 0.0, 0.0, 0.0, 0.0, 1.6989585584668713E9, 0.0, 2023-11-02 16:55:58.466
43.0, -187500.02235174447, 187500.0, 19767.72633406238, 17558.591670822105, 187500.0, 187500.0, -187500.02235174447, 33614.31909970273, -0.088, 0.98, 0.10200000000000001, 192.0, 0.0, 0.0, 0.0, 0.0, 0.0, 0.0, 0.0, 0.0, 0.0, 1.6989585584669344E9, 0.0, 2023-11-02 16:55:58.466
44.0, -187500.02235174447, 187500.0, 19766.407581139516, 17549.33804861761, 187500.0, 187500.0, -187500.02235174447, 33612.59801537967, -0.088, 0.98, 0.10200000000000001, 192.0, 0.0, 0.0, 0.0, 0.0, 0.0, 0.0, 0.0, 0.0, 0.0, 1.6989585584669447E9, 0.0, 2023-11-02 16:55:58.466
45.0, -187500.02235174447, 187500.0, 19767.10048521763, 17543.213670636855, 187500.0, 187500.0, -187500.02235174447, 33611.659242112546, -0.088, 0.98, 0.10200000000000001, 192.0, 0.0, 0.0, 0.0, 0.0, 0.0, 0.0, 0.0, 0.0, 0.0, 1.698958558466955E9, 0.0, 2023-11-02 16:55:58.466
46.0, -187500.02235174447, 187500.0, 19765.982897994865, 17546.85700498307, 187500.0, 187500.0, -187500.02235174447, 33609.89345430058, -0.088, 0.98, 0.10200000000000001, 192.0, 0.0, 0.0, 0.0, 0.0, 0.0, 0.0, 0.0, 0.0, 0.0, 1.6989585584669652E9, 0.0, 2023-11-02 16:55:58.466
47.0, -187500.02235174447, 187500.0, 19769.089790474154, 17553.0931416861, 187500.0, 187500.0, -187500.02235174447, 33612.642718868585, -0.088, 0.98, 0.10200000000000001, 192.0, 0.0, 0.0, 0.0, 0.0, 0.0, 0.0, 0.0, 0.0, 0.0, 1.6989585584669752E9, 0.0, 2023-11-02 16:55:58.466
48.0, -187500.02235174447, 187500.0, 19771.950813764433, 17557.22821441033, 187500.0, 187500.0, -187500.02235174447, 33616.487218914895, -0.088, 0.98, 0.10200000000000001, 192.0, 0.0, 0.0, 0.0, 0.0, 0.0, 0.0, 0.0, 0.0, 0.0, 1.6989585584669952E9, 0.0, 2023-11-02 16:55:58.466
49.0, -187500.02235174447, 187500.0, 19769.603880596624, 17557.205862665876, 187500.0, 187500.0, -187500.02235174447, 33614.54261714729, -0.088, 0.98, 0.10200000000000001, 192.0, 0.0, 0.0, 0.0, 0.0, 0.0, 0.0, 0.0, 0.0, 0.0, 1.6989585584670084E9, 0.0, 2023-11-02 16:55:58.467
50.0, -187500.02235174447, 187500.0, 19771.43672364196, 17561.877377257035, 187500.0, 187500.0, -187500.02235174447, 33615.45903866995, -0.096, 0.98, 0.106, 192.0, 253.0, 0.0, 30.0, 160.0, 3.0, 80.0, 0.0, 0.0, 0.0, 1.6989585584670355E9, 0.0, 2023-11-02 16:55:58.467
51.0, -187500.02235174447, 187500.0, 19770.453246885925, 17562.458522612873, 187500.0, 187500.0, -187500.02235174447, 33612.39684967957, -0.096, 0.98, 0.106, 192.0, 0.0, 0.0, 0.0, 0.0, 0.0, 0.0, 0.0, 0.0, 0.0, 1.698958558467065E9, 0.0, 2023-11-02 16:55:58.467
52.0, -187500.02235174447, 187500.0, 19768.39688639604, 17559.28457490022, 187500.0, 187500.0, -187500.02235174447, 33610.42989616751, -0.096, 0.98, 0.106, 192.0, 0.0, 0.0, 0.0, 0.0, 0.0, 0.0, 0.0, 0.0, 0.0, 1.6989585584670804E9, 0.0, 2023-11-02 16:55:58.467
53.0, -187500.02235174447, 187500.0, 19772.8672352871, 17555.015391709258, 187500.0, 187500.0, -187500.02235174447, 33615.52609390332, -0.096, 0.98, 0.106, 192.0, 0.0, 0.0, 0.0, 0.0, 0.0, 0.0, 0.0, 0.0, 0.0, 1.6989585584670908E9, 0.0, 2023-11-02 16:55:58.467
54.0, -187500.02235174447, 187500.0, 19770.319136419195, 17564.134903447022, 187500.0, 187500.0, -187500.02235174447, 33614.20734098045, -0.096, 0.98, 0.106, 192.0, 0.0, 0.0, 0.0, 0.0, 0.0, 0.0, 0.0, 0.0, 0.0, 1.698958558467101E9, 0.0, 2023-11-02 16:55:58.467
55.0, -187500.02235174447, 187500.0, 19772.666069587, 17574.975499507847, 187500.0, 187500.0, -187500.02235174447, 33616.44251542598, -0.096, 0.98, 0.106, 192.0, 0.0, 0.0, 0.0, 0.0, 0.0, 0.0, 0.0, 0.0, 0.0, 1.698958558467111E9, 0.0, 2023-11-02 16:55:58.467
56.0, -187500.02235174447, 187500.0, 19768.754514307322, 17578.61883385406, 187500.0, 187500.0, -187500.02235174447, 33612.10627700166, -0.096, 0.98, 0.106, 192.0, 0.0, 0.0, 0.0, 0.0, 0.0, 0.0, 0.0, 0.0, 0.0, 1.6989585584671214E9, 0.0, 2023-11-02 16:55:58.467
57.0, -187500.02235174447, 187500.0, 19766.273470672782, 17571.823903539647, 187500.0, 187500.0, -187500.02235174447, 33608.105314744156, -0.096, 0.98, 0.106, 192.0, 0.0, 0.0, 0.0, 0.0, 0.0, 0.0, 0.0, 0.0, 0.0, 1.6989585584671316E9, 0.0, 2023-11-02 16:55:58.467
58.0, -187500.02235174447, 187500.0, 19769.022735240786, 17573.366173907063, 187500.0, 187500.0, -187500.02235174447, 33607.63592811059, -0.096, 0.98, 0.106, 192.0, 0.0, 0.0, 0.0, 0.0, 0.0, 0.0, 0.0, 0.0, 0.0, 1.6989585584671695E9, 0.0, 2023-11-02 16:55:58.467
59.0, -187500.02235174447, 187500.0, 19767.52516836228, 17578.28355768723, 187500.0, 187500.0, -187500.02235174447, 33604.90901528705, -0.096, 0.98, 0.106, 192.0, 0.0, 0.0, 0.0, 0.0, 0.0, 0.0, 0.0, 0.0, 0.0, 1.6989585584671795E9, 0.0, 2023-11-02 16:55:58.467
60.0, -187500.02235174447, 187500.0, 19765.312345661205, 17577.85887454258, 187500.0, 187500.0, -187500.02235174447, 33604.57373912021, -0.092, 0.972, 0.10200000000000001, 192.0, 253.0, 32.0, 30.0, 96.0, 3.0, 48.0, 0.0, 0.0, 0.0, 1.6989585584671893E9, 0.0, 2023-11-02 16:55:58.467
61.0, -187500.02235174447, 187500.0, 19764.217110182897, 17573.299118673698, 187500.0, 187500.0, -187500.02235174447, 33603.14322747508, -0.092, 0.972, 0.10200000000000001, 192.0, 0.0, 0.0, 0.0, 0.0, 0.0, 0.0, 0.0, 0.0, 0.0, 1.6989585584672372E9, 0.0, 2023-11-02 16:55:58.467
62.0, -187500.02235174447, 187500.0, 19765.692325316944, 17570.371040150054, 187500.0, 187500.0, -187500.02235174447, 33602.47267514142, -0.092, 0.972, 0.10200000000000001, 192.0, 0.0, 0.0, 0.0, 0.0, 0.0, 0.0, 0.0, 0.0, 0.0, 1.6989585584672654E9, 0.0, 2023-11-02 16:55:58.467
63.0, -187500.02235174447, 187500.0, 19764.708848560913, 17577.81417105367, 187500.0, 187500.0, -187500.02235174447, 33601.243329196375, -0.092, 0.972, 0.10200000000000001, 192.0, 0.0, 0.0, 0.0, 0.0, 0.0, 0.0, 0.0, 0.0, 0.0, 1.6989585584672756E9, 0.0, 2023-11-02 16:55:58.467
64.0, -187500.02235174447, 187500.0, 19767.234595684364, 17581.055173999688, 187500.0, 187500.0, -187500.02235174447, 33602.852654797156, -0.092, 0.972, 0.10200000000000001, 192.0, 0.0, 0.0, 0.0, 0.0, 0.0, 0.0, 0.0, 0.0, 0.0, 1.6989585584673018E9, 0.0, 2023-11-02 16:55:58.467
65.0, -187500.02235174447, 187500.0, 19774.34245042115, 17580.116400732568, 187500.0, 187500.0, -187500.02235174447, 33606.54069263228, -0.092, 0.972, 0.10200000000000001, 192.0, 0.0, 0.0, 0.0, 0.0, 0.0, 0.0, 0.0, 0.0, 0.0, 1.6989585584673111E9, 0.0, 2023-11-02 16:55:58.467
66.0, -187500.02235174447, 187500.0, 19774.163636465506, 17578.976461765345, 187500.0, 187500.0, -187500.02235174447, 33605.288994942784, -0.092, 0.972, 0.10200000000000001, 192.0, 0.0, 0.0, 0.0, 0.0, 0.0, 0.0, 0.0, 0.0, 0.0, 1.6989585584673214E9, 0.0, 2023-11-02 16:55:58.467
67.0, -187500.02235174447, 187500.0, 19775.460037643916, 17590.733479348837, 187500.0, 187500.0, -187500.02235174447, 33604.4843321424, -0.092, 0.972, 0.10200000000000001, 192.0, 0.0, 0.0, 0.0, 0.0, 0.0, 0.0, 0.0, 0.0, 0.0, 1.6989585584673307E9, 0.0, 2023-11-02 16:55:58.467
68.0, -187500.02235174447, 187500.0, 19770.9673370084, 17592.18634273843, 187500.0, 187500.0, -187500.02235174447, 33598.65052683956, -0.092, 0.972, 0.10200000000000001, 192.0, 0.0, 0.0, 0.0, 0.0, 0.0, 0.0, 0.0, 0.0, 0.0, 1.6989585584673405E9, 0.0, 2023-11-02 16:55:58.467
69.0, -187500.02235174447, 187500.0, 19769.62623234108, 17585.369060679564, 187500.0, 187500.0, -187500.02235174447, 33597.93527101699, -0.092, 0.972, 0.10200000000000001, 192.0, 0.0, 0.0, 0.0, 0.0, 0.0, 0.0, 0.0, 0.0, 0.0, 1.6989585584673703E9, 0.0, 2023-11-02 16:55:58.467
70.0, -187500.02235174447, 187500.0, 19771.19085445295, 17591.605197382592, 187500.0, 187500.0, -187500.02235174447, 33601.109218729645, -0.09, 0.972, 0.106, 192.0, 253.0, 48.0, 30.0, 96.0, 3.0, 80.0, 0.0, 0.0, 0.0, 1.6989585584673972E9, 0.0, 2023-11-02 16:55:58.467
71.0, -187500.02235174447, 187500.0, 19760.70788630341, 17594.019185783767, 187500.0, 187500.0, -187500.02235174447, 33590.84976802466, -0.09, 0.972, 0.106, 192.0, 0.0, 0.0, 0.0, 0.0, 0.0, 0.0, 0.0, 0.0, 0.0, 1.6989585584674263E9, 0.0, 2023-11-02 16:55:58.467
72.0, -187500.02235174447, 187500.0, 19756.371647879085, 17586.888979302523, 187500.0, 187500.0, -187500.02235174447, 33585.82062552221, -0.09, 0.972, 0.106, 192.0, 0.0, 0.0, 0.0, 0.0, 0.0, 0.0, 0.0, 0.0, 0.0, 1.6989585584674535E9, 0.0, 2023-11-02 16:55:58.467
73.0, -187500.02235174447, 187500.0, 19760.372610136583, 17584.20676996789, 187500.0, 187500.0, -187500.02235174447, 33590.894471513566, -0.09, 0.972, 0.106, 192.0, 0.0, 0.0, 0.0, 0.0, 0.0, 0.0, 0.0, 0.0, 0.0, 1.6989585584674716E9, 0.0, 2023-11-02 16:55:58.467
74.0, -187500.02235174447, 187500.0, 19763.43479912696, 17585.01143276828, 187500.0, 187500.0, -187500.02235174447, 33593.42021863702, -0.09, 0.972, 0.106, 192.0, 0.0, 0.0, 0.0, 0.0, 0.0, 0.0, 0.0, 0.0, 0.0, 1.6989585584674811E9, 0.0, 2023-11-02 16:55:58.467
75.0, -187500.02235174447, 187500.0, 19757.24336591284, 17588.38654618103, 187500.0, 187500.0, -187500.02235174447, 33588.05579996775, -0.09, 0.972, 0.106, 192.0, 0.0, 0.0, 0.0, 0.0, 0.0, 0.0, 0.0, 0.0, 0.0, 1.698958558467491E9, 0.0, 2023-11-02 16:55:58.467
76.0, -187500.02235174447, 187500.0, 19762.116046204097, 17594.779145095246, 187500.0, 187500.0, -187500.02235174447, 33592.48144536989, -0.09, 0.972, 0.106, 192.0, 0.0, 0.0, 0.0, 0.0, 0.0, 0.0, 0.0, 0.0, 0.0, 1.6989585584675004E9, 0.0, 2023-11-02 16:55:58.467
77.0, -187500.02235174447, 187500.0, 19766.742857306344, 17598.8024590972, 187500.0, 187500.0, -187500.02235174447, 33596.415352394026, -0.09, 0.972, 0.106, 192.0, 0.0, 0.0, 0.0, 0.0, 0.0, 0.0, 0.0, 0.0, 0.0, 1.69895855846751E9, 0.0, 2023-11-02 16:55:58.467
78.0, -187500.02235174447, 187500.0, 19773.224863198386, 17598.489534674827, 187500.0, 187500.0, -187500.02235174447, 33602.02564025231, -0.09, 0.972, 0.106, 192.0, 0.0, 0.0, 0.0, 0.0, 0.0, 0.0, 0.0, 0.0, 0.0, 1.6989585584675195E9, 0.0, 2023-11-02 16:55:58.467
79.0, -187500.02235174447, 187500.0, 19773.895415532043, 17606.491459189827, 187500.0, 187500.0, -187500.02235174447, 33605.19958796496, -0.09, 0.972, 0.106, 192.0, 0.0, 0.0, 0.0, 0.0, 0.0, 0.0, 0.0, 0.0, 0.0, 1.6989585584675293E9, 0.0, 2023-11-02 16:55:58.467
80.0, -187500.02235174447, 187500.0, 19764.664145072, 17606.334996978643, 187500.0, 187500.0, -187500.02235174447, 33597.1306082166, -0.096, 0.976, 0.108, 192.0, 253.0, 0.0, 30.0, 128.0, 3.0, 96.0, 0.0, 0.0, 0.0, 1.6989585584675388E9, 0.0, 2023-11-02 16:55:58.467
81.0, -187500.02235174447, 187500.0, 19767.77103755129, 17602.423441698964, 187500.0, 187500.0, -187500.02235174447, 33599.83516929569, -0.096, 0.976, 0.108, 192.0, 0.0, 0.0, 0.0, 0.0, 0.0, 0.0, 0.0, 0.0, 0.0, 1.6989585584675488E9, 0.0, 2023-11-02 16:55:58.467
82.0, -187500.02235174447, 187500.0, 19774.610671354614, 17594.86855207307, 187500.0, 187500.0, -187500.02235174447, 33604.819608309226, -0.096, 0.976, 0.108, 192.0, 0.0, 0.0, 0.0, 0.0, 0.0, 0.0, 0.0, 0.0, 0.0, 1.6989585584675581E9, 0.0, 2023-11-02 16:55:58.467
83.0, -187500.02235174447, 187500.0, 19771.593185853148, 17593.52744740575, 187500.0, 187500.0, -187500.02235174447, 33600.03633499579, -0.096, 0.976, 0.108, 192.0, 0.0, 0.0, 0.0, 0.0, 0.0, 0.0, 0.0, 0.0, 0.0, 1.698958558467569E9, 0.0, 2023-11-02 16:55:58.467
84.0, -187500.02235174447, 187500.0, 19766.385229395062, 17593.3039299612, 187500.0, 187500.0, -187500.02235174447, 33593.80019829276, -0.096, 0.976, 0.108, 192.0, 0.0, 0.0, 0.0, 0.0, 0.0, 0.0, 0.0, 0.0, 0.0, 1.698958558467579E9, 0.0, 2023-11-02 16:55:58.467
85.0, -187500.02235174447, 187500.0, 19772.844883542646, 17595.96378755138, 187500.0, 187500.0, -187500.02235174447, 33599.32107917322, -0.096, 0.976, 0.108, 192.0, 0.0, 0.0, 0.0, 0.0, 0.0, 0.0, 0.0, 0.0, 0.0, 1.6989585584675882E9, 0.0, 2023-11-02 16:55:58.467
86.0, -187500.02235174447, 187500.0, 19770.319136419195, 17588.922988047958, 187500.0, 187500.0, -187500.02235174447, 33596.638869838585, -0.096, 0.976, 0.108, 192.0, 0.0, 0.0, 0.0, 0.0, 0.0, 0.0, 0.0, 0.0, 0.0, 1.6989585584675977E9, 0.0, 2023-11-02 16:55:58.467
87.0, -187500.02235174447, 187500.0, 19757.62334556858, 17585.23495021283, 187500.0, 187500.0, -187500.02235174447, 33581.90907024254, -0.096, 0.976, 0.108, 192.0, 0.0, 0.0, 0.0, 0.0, 0.0, 0.0, 0.0, 0.0, 0.0, 1.6989585584676073E9, 0.0, 2023-11-02 16:55:58.467
88.0, -187500.02235174447, 187500.0, 19750.783711765256, 17593.19217123892, 187500.0, 187500.0, -187500.02235174447, 33574.98002946139, -0.096, 0.976, 0.108, 192.0, 0.0, 0.0, 0.0, 0.0, 0.0, 0.0, 0.0, 0.0, 0.0, 1.698958558467625E9, 0.0, 2023-11-02 16:55:58.467
89.0, -187500.02235174447, 187500.0, 19754.225880411374, 17595.226179984355, 187500.0, 187500.0, -187500.02235174447, 33578.69041904097, -0.096, 0.976, 0.108, 192.0, 0.0, 0.0, 0.0, 0.0, 0.0, 0.0, 0.0, 0.0, 0.0, 1.6989585584676344E9, 0.0, 2023-11-02 16:55:58.467
90.0, -187500.02235174447, 187500.0, 19760.462017114405, 17596.924912562958, 187500.0, 187500.0, -187500.02235174447, 33585.440645866474, -0.084, 0.976, 0.10400000000000001, 192.0, 253.0, 96.0, 30.0, 128.0, 3.0, 64.0, 0.0, 0.0, 0.0, 1.698958558467644E9, 0.0, 2023-11-02 16:55:58.467
91.0, -187500.02235174447, 187500.0, 19756.48340660136, 17598.847162586113, 187500.0, 187500.0, -187500.02235174447, 33581.93142198699, -0.084, 0.976, 0.10400000000000001, 192.0, 0.0, 0.0, 0.0, 0.0, 0.0, 0.0, 0.0, 0.0, 0.0, 1.698958558467654E9, 0.0, 2023-11-02 16:55:58.467
92.0, -187500.02235174447, 187500.0, 19752.48244434386, 17600.68000563145, 187500.0, 187500.0, -187500.02235174447, 33577.84105275167, -0.084, 0.976, 0.10400000000000001, 192.0, 0.0, 0.0, 0.0, 0.0, 0.0, 0.0, 0.0, 0.0, 0.0, 1.6989585584676635E9, 0.0, 2023-11-02 16:55:58.467
93.0, -187500.02235174447, 187500.0, 19752.258926899307, 17601.68583413194, 187500.0, 187500.0, -187500.02235174447, 33576.03056145079, -0.084, 0.976, 0.10400000000000001, 192.0, 0.0, 0.0, 0.0, 0.0, 0.0, 0.0, 0.0, 0.0, 0.0, 1.6989585584676733E9, 0.0, 2023-11-02 16:55:58.467
94.0, -187500.02235174447, 187500.0, 19765.759380550313, 17609.687758646938, 187500.0, 187500.0, -187500.02235174447, 33589.776884290804, -0.084, 0.976, 0.10400000000000001, 192.0, 0.0, 0.0, 0.0, 0.0, 0.0, 0.0, 0.0, 0.0, 0.0, 1.6989585584676828E9, 0.0, 2023-11-02 16:55:58.467
95.0, -187500.02235174447, 187500.0, 19769.13449396306, 17627.56915421118, 187500.0, 187500.0, -187500.02235174447, 33593.487273870385, -0.084, 0.976, 0.10400000000000001, 192.0, 0.0, 0.0, 0.0, 0.0, 0.0, 0.0, 0.0, 0.0, 0.0, 1.6989585584676924E9, 0.0, 2023-11-02 16:55:58.467
96.0, -187500.02235174447, 187500.0, 19759.09856070263, 17631.10072983512, 187500.0, 187500.0, -187500.02235174447, 33585.03831446628, -0.084, 0.976, 0.10400000000000001, 192.0, 0.0, 0.0, 0.0, 0.0, 0.0, 0.0, 0.0, 0.0, 0.0, 1.698958558467702E9, 0.0, 2023-11-02 16:55:58.467
97.0, -187500.02235174447, 187500.0, 19758.964450235897, 17631.90539263551, 187500.0, 187500.0, -187500.02235174447, 33586.04414296677, -0.084, 0.976, 0.10400000000000001, 192.0, 0.0, 0.0, 0.0, 0.0, 0.0, 0.0, 0.0, 0.0, 0.0, 1.6989585584677114E9, 0.0, 2023-11-02 16:55:58.467
98.0, -187500.02235174447, 187500.0, 19762.16074969301, 17627.16682281099, 187500.0, 187500.0, -187500.02235174447, 33587.474654611906, -0.084, 0.976, 0.10400000000000001, 192.0, 0.0, 0.0, 0.0, 0.0, 0.0, 0.0, 0.0, 0.0, 0.0, 1.6989585584677207E9, 0.0, 2023-11-02 16:55:58.467
99.0, -187500.02235174447, 187500.0, 19764.99942123883, 17622.67412217547, 187500.0, 187500.0, -187500.02235174447, 33587.98874473438, -0.084, 0.976, 0.10400000000000001, 192.0, 0.0, 0.0, 0.0, 0.0, 0.0, 0.0, 0.0, 0.0, 0.0, 1.6989585584677303E9, 0.0, 2023-11-02 16:55:58.467
100.0, -187500.02235174447, 187500.0, 19759.52324384728, 17619.477822718363, 187500.0, 187500.0, -187500.02235174447, 33580.344448130665, -0.084, 0.976, 0.11, 192.0, 253.0, 96.0, 30.0, 128.0, 3.0, 112.0, 0.0, 0.0, 0.0, 1.69895855846774E9, 0.0, 2023-11-02 16:55:58.467
101.0, -187500.02235174447, 187500.0, 19755.790502523247, 17621.40007274152, 187500.0, 187500.0, -187500.02235174447, 33575.29295388376, -0.084, 0.976, 0.11, 192.0, 0.0, 0.0, 0.0, 0.0, 0.0, 0.0, 0.0, 0.0, 0.0, 1.6989585584677503E9, 0.0, 2023-11-02 16:55:58.467
102.0, -187500.02235174447, 187500.0, 19759.635002569557, 17615.230991271852, 187500.0, 187500.0, -187500.02235174447, 33578.48925334087, -0.084, 0.976, 0.11, 192.0, 0.0, 0.0, 0.0, 0.0, 0.0, 0.0, 0.0, 0.0, 0.0, 1.69895855846776E9, 0.0, 2023-11-02 16:55:58.467
103.0, -187500.02235174447, 187500.0, 19762.898357260034, 17615.34274999413, 187500.0, 187500.0, -187500.02235174447, 33580.41150336403, -0.084, 0.976, 0.11, 192.0, 0.0, 0.0, 0.0, 0.0, 0.0, 0.0, 0.0, 0.0, 0.0, 1.6989585584677696E9, 0.0, 2023-11-02 16:55:58.467
104.0, -187500.02235174447, 187500.0, 19755.76815077879, 17616.460337216897, 187500.0, 187500.0, -187500.02235174447, 33572.63309629358, -0.084, 0.976, 0.11, 192.0, 0.0, 0.0, 0.0, 0.0, 0.0, 0.0, 0.0, 0.0, 0.0, 1.6989585584677885E9, 0.0, 2023-11-02 16:55:58.467
105.0, -187500.02235174447, 187500.0, 19754.248232155827, 17619.075491318166, 187500.0, 187500.0, -187500.02235174447, 33570.1744044035, -0.084, 0.976, 0.11, 192.0, 0.0, 0.0, 0.0, 0.0, 0.0, 0.0, 0.0, 0.0, 0.0, 1.698958558467798E9, 0.0, 2023-11-02 16:55:58.467
106.0, -187500.02235174447, 187500.0, 19758.62917406907, 17625.892773377036, 187500.0, 187500.0, -187500.02235174447, 33574.28712538328, -0.084, 0.976, 0.11, 192.0, 0.0, 0.0, 0.0, 0.0, 0.0, 0.0, 0.0, 0.0, 0.0, 1.6989585584678073E9, 0.0, 2023-11-02 16:55:58.467
107.0, -187500.02235174447, 187500.0, 19759.076208958177, 17628.39616875603, 187500.0, 187500.0, -187500.02235174447, 33575.62823005059, -0.084, 0.976, 0.11, 192.0, 0.0, 0.0, 0.0, 0.0, 0.0, 0.0, 0.0, 0.0, 0.0, 1.698958558467817E9, 0.0, 2023-11-02 16:55:58.467
108.0, -187500.02235174447, 187500.0, 19758.070380457688, 17633.40295951402, 187500.0, 187500.0, -187500.02235174447, 33574.24242189436, -0.084, 0.976, 0.11, 192.0, 0.0, 0.0, 0.0, 0.0, 0.0, 0.0, 0.0, 0.0, 0.0, 1.6989585584678264E9, 0.0, 2023-11-02 16:55:58.467
109.0, -187500.02235174447, 187500.0, 19757.9139182465, 17643.885927663556, 187500.0, 187500.0, -187500.02235174447, 33574.24242189436, -0.084, 0.976, 0.11, 192.0, 0.0, 0.0, 0.0, 0.0, 0.0, 0.0, 0.0, 0.0, 0.0, 1.698958558467836E9, 0.0, 2023-11-02 16:55:58.467
110.0, -187500.02235174447, 187500.0, 19759.322078147183, 17648.40098004353, 187500.0, 187500.0, -187500.02235174447, 33575.874099239605, -0.09, 0.974, 0.108, 192.0, 253.0, 48.0, 30.0, 112.0, 3.0, 96.0, 0.0, 0.0, 0.0, 1.6989585584678457E9, 0.0, 2023-11-02 16:55:58.467
111.0, -187500.02235174447, 187500.0, 19763.77007529379, 17649.272698077286, 187500.0, 187500.0, -187500.02235174447, 33580.344448130665, -0.09, 0.974, 0.108, 192.0, 0.0, 0.0, 0.0, 0.0, 0.0, 0.0, 0.0, 0.0, 0.0, 1.698958558467856E9, 0.0, 2023-11-02 16:55:58.467
112.0, -187500.02235174447, 187500.0, 19761.28903165925, 17646.948116653934, 187500.0, 187500.0, -187500.02235174447, 33577.483424840386, -0.09, 0.974, 0.108, 192.0, 0.0, 0.0, 0.0, 0.0, 0.0, 0.0, 0.0, 0.0, 0.0, 1.6989585584678657E9, 0.0, 2023-11-02 16:55:58.467
113.0, -187500.02235174447, 187500.0, 19762.853653771122, 17645.472901519883, 187500.0, 187500.0, -187500.02235174447, 33579.38332311909, -0.09, 0.974, 0.108, 192.0, 0.0, 0.0, 0.0, 0.0, 0.0, 0.0, 0.0, 0.0, 0.0, 1.6989585584678752E9, 0.0, 2023-11-02 16:55:58.467
114.0, -187500.02235174447, 187500.0, 19761.11021770361, 17651.44081728945, 187500.0, 187500.0, -187500.02235174447, 33579.27156439681, -0.09, 0.974, 0.108, 192.0, 0.0, 0.0, 0.0, 0.0, 0.0, 0.0, 0.0, 0.0, 0.0, 1.6989585584678845E9, 0.0, 2023-11-02 16:55:58.467
115.0, -187500.02235174447, 187500.0, 19757.62334556858, 17644.19885208593, 187500.0, 187500.0, -187500.02235174447, 33574.98002946139, -0.09, 0.974, 0.108, 192.0, 0.0, 0.0, 0.0, 0.0, 0.0, 0.0, 0.0, 0.0, 0.0, 1.6989585584678943E9, 0.0, 2023-11-02 16:55:58.467
116.0, -187500.02235174447, 187500.0, 19752.191871665942, 17633.224145558375, 187500.0, 187500.0, -187500.02235174447, 33567.179270646484, -0.09, 0.974, 0.108, 192.0, 0.0, 0.0, 0.0, 0.0, 0.0, 0.0, 0.0, 0.0, 0.0, 1.6989585584679036E9, 0.0, 2023-11-02 16:55:58.467
117.0, -187500.02235174447, 187500.0, 19747.34154311914, 17637.1133490936, 187500.0, 187500.0, -187500.02235174447, 33561.85955546612, -0.09, 0.974, 0.108, 192.0, 0.0, 0.0, 0.0, 0.0, 0.0, 0.0, 0.0, 0.0, 0.0, 1.6989585584679132E9, 0.0, 2023-11-02 16:55:58.467
118.0, -187500.02235174447, 187500.0, 19750.582546065158, 17641.53899449575, 187500.0, 187500.0, -187500.02235174447, 33565.07820666769, -0.09, 0.974, 0.108, 192.0, 0.0, 0.0, 0.0, 0.0, 0.0, 0.0, 0.0, 0.0, 0.0, 1.6989585584679227E9, 0.0, 2023-11-02 16:55:58.467
